File: DestructiveTests/Tensile/FIBERGLASS TENSILE.is_qtest_Exports/FIBERGLASS TENSILE_1.csv
Time,Displacement,Force
(s),(mm),(kN)
"0.0000","0.0000","-0.0004"
"1.1000","0.0160","0.0007"
"2.2000","0.0339","0.0007"
"3.3000","0.0523","0.0012"
"4.4000","0.0710","0.0016"
"5.5000","0.0894","0.0018"
"6.6000","0.1074","0.0024"
"7.7000","0.1256","0.0022"
"8.8000","0.1443","0.0031"
"9.9000","0.1628","0.0028"
"11.0000","0.1808","0.0030"
"12.1000","0.1991","0.0030"
"13.2000","0.2174","0.0034"
"14.3000","0.2356","0.0033"
"15.4000","0.2539","0.0031"
"16.5000","0.2725","0.0034"
"17.6000","0.2913","0.0035"
"18.7000","0.3093","0.0032"
"19.8000","0.3274","0.0041"
"20.9000","0.3457","0.0123"
"22.0000","0.3641","0.0417"
"23.1000","0.3824","0.0936"
"24.2000","0.4007","0.1615"
"25.3000","0.4197","0.2236"
"26.4000","0.4377","0.2829"
"27.5000","0.4557","0.3421"
"28.6000","0.4739","0.4037"
"29.7000","0.4925","0.4700"
"30.8000","0.5107","0.5347"
"31.9000","0.5291","0.6018"
"33.0000","0.5479","0.6722"
"34.1000","0.5662","0.7406"
"35.2000","0.5840","0.8067"
"36.3000","0.6022","0.8775"
"37.4000","0.6208","0.9500"
"38.5000","0.6391","1.0222"
"39.6000","0.6574","1.0933"
"40.7000","0.6760","1.1674"
"41.8000","0.6945","1.2419"
"42.9000","0.7122","1.3103"
"44.0000","0.7305","1.3838"
"45.1000","0.7491","1.4598"
"46.2000","0.7676","1.5331"
"47.3000","0.7859","1.6044"
"48.4000","0.8043","1.6763"
"49.5000","0.8228","1.7472"
"50.6000","0.8406","1.8096"
"51.7000","0.8588","1.8727"
"52.8000","0.8773","1.9362"
"53.9000","0.8961","1.9979"
"55.0000","0.9142","2.0530"
"56.1000","0.9326","2.1102"
"57.2000","0.9511","2.1659"
"58.3000","0.9690","2.2209"
"59.4000","0.9872","2.2762"
"60.5000","1.0056","2.3328"
"61.6000","1.0244","2.3923"
"62.7000","1.0427","2.4476"
"63.8000","1.0608","2.5022"
"64.9000","1.0792","2.5580"
"66.0000","1.0974","2.6083"
"67.1000","1.1155","2.6600"
"68.2000","1.1340","2.7179"
"69.3000","1.1527","2.7746"
"70.4000","1.1712","2.8309"
"71.5000","1.1891","2.8837"
"72.6000","1.2074","2.9396"
"73.7000","1.2259","2.9950"
"74.8000","1.2440","3.0488"
"75.9000","1.2623","3.1055"
"77.0000","1.2809","3.1607"
"78.1000","1.2996","3.2166"
"79.2000","1.3175","3.2689"
"80.3000","1.3357","3.3210"
"81.4000","1.3540","3.3591"
"82.5000","1.3724","3.4149"
"83.6000","1.3907","3.4694"
"84.7000","1.4091","3.5229"
"85.8000","1.4279","3.5817"
"86.9000","1.4460","3.6321"
"88.0000","1.4639","3.6833"
"89.1000","1.4822","3.7361"
"90.2000","1.5008","3.7898"
"91.3000","1.5192","3.8390"
"92.4000","1.5375","3.8903"
"93.5000","1.5563","3.9449"
"94.6000","1.5744","3.9938"
"95.7000","1.5921","4.0394"
"96.8000","1.6105","4.0921"
"97.9000","1.6293","4.1490"
"99.0000","1.6476","4.1998"
"100.1000","1.6658","4.2506"
"101.2000","1.6844","4.3069"
"102.3000","1.7028","4.3598"
"103.4000","1.7205","4.4083"
"104.5000","1.7388","4.4613"
"105.6000","1.7575","4.5176"
"106.7000","1.7761","4.5721"
"107.8000","1.7941","4.6242"
"108.9000","1.8128","4.6787"
"110.0000","1.8311","4.7310"
"111.1000","1.8489","4.7810"
"112.2000","1.8671","4.8332"
"113.3000","1.8857","4.8878"
"114.4000","1.9045","4.9447"
"115.5000","1.9226","4.9954"
"116.6000","1.9409","5.0482"
"117.7000","1.9593","5.1015"
"118.8000","1.9772","5.1523"
"119.9000","1.9955","5.2063"
"121.0000","2.0140","5.2608"
"122.1000","2.0328","5.3185"
"123.2000","2.0512","5.3718"
"124.3000","2.0692","5.4240"
"125.4000","2.0875","5.4765"
"126.5000","2.1057","5.5291"
"127.6000","2.1240","5.5824"
"128.7000","2.1423","5.6357"
"129.8000","2.1612","5.6916"
"130.9000","2.1795","5.7440"
"132.0000","2.1975","5.7957"
"133.1000","2.2156","5.8459"
"134.2000","2.2341","5.8996"
"135.3000","2.2524","5.9522"
"136.4000","2.2707","6.0032"
"137.5000","2.2893","6.0558"
"138.6000","2.3080","6.1100"
"139.7000","2.3258","6.1571"
"140.8000","2.3440","6.2066"
"141.9000","2.3623","6.2560"
"143.0000","2.3808","6.3083"
"144.1000","2.3991","6.3565"
"145.2000","2.4175","6.4065"
"146.3000","2.4364","6.4602"
"147.4000","2.4542","6.5071"
"148.5000","2.4722","6.5555"
"149.6000","2.4906","6.6054"
"150.7000","2.5093","6.6561"
"151.8000","2.5275","6.7056"
"152.9000","2.5458","6.7572"
"154.0000","2.5647","6.8099"
"155.1000","2.5826","6.8586"
"156.2000","2.6004","6.9061"
"157.3000","2.6188","6.9577"
"158.4000","2.6377","7.0118"
"159.5000","2.6559","7.0605"
"160.6000","2.6742","7.1115"
"161.7000","2.6928","7.1625"
"162.8000","2.7109","7.2110"
"163.9000","2.7288","7.2581"
"165.0000","2.7472","7.3090"
"166.1000","2.7658","7.3595"
"167.2000","2.7845","7.4127"
"168.3000","2.8025","7.4603"
"169.4000","2.8211","7.5132"
"170.5000","2.8392","7.5608"
"171.6000","2.8572","7.6095"
"172.7000","2.8756","7.6607"
"173.8000","2.8941","7.7128"
"174.9000","2.9129","7.7654"
"176.0000","2.9310","7.8150"
"177.1000","2.9492","7.8636"
"178.2000","2.9675","7.9143"
"179.3000","2.9856","7.9624"
"180.4000","3.0039","8.0129"
"181.5000","3.0224","8.0646"
"182.6000","3.0412","8.1190"
"183.7000","3.0594","8.1678"
"184.8000","3.0775","8.2175"
"185.9000","3.0957","8.2671"
"187.0000","3.1141","8.3184"
"188.1000","3.1323","8.3689"
"189.2000","3.1507","8.4193"
"190.3000","3.1695","8.4742"
"191.4000","3.1878","8.5243"
"192.5000","3.2058","8.5727"
"193.6000","3.2238","8.6224"
"194.7000","3.2424","8.6756"
"195.8000","3.2609","8.7263"
"196.9000","3.2791","8.7767"
"198.0000","3.2977","8.8273"
"199.1000","3.3163","8.8769"
"200.2000","3.3339","8.9183"
"201.3000","3.3522","8.9478"
"202.3530","3.3698","8.4076"
"203.4530","3.3883","8.4543"
"204.5530","3.4067","8.5181"
"205.6530","3.4250","8.5853"
"206.7530","3.4438","8.6565"
"207.8530","3.4620","8.7214"
"208.9530","3.4798","8.7802"
"210.0530","3.4980","8.8386"
"211.1530","3.5168","8.8987"
"212.2530","3.5352","8.9568"
"213.3530","3.5534","9.0096"
"214.4530","3.5719","9.0630"
"215.5530","3.5904","9.1176"
"216.6530","3.6081","9.1655"
"217.7530","3.6263","9.2181"
"218.8530","3.6451","9.2721"
"219.9530","3.6635","9.3248"
"221.0530","3.6817","9.3752"
"222.1530","3.7002","9.4265"
"223.2530","3.7187","9.4786"
"224.3530","3.7365","9.5265"
"225.4530","3.7547","9.5757"
"226.5530","3.7733","9.6264"
"227.6530","3.7921","9.6797"
"228.7530","3.8101","9.7264"
"229.8530","3.8285","9.7774"
"230.9530","3.8469","9.8268"
"232.0530","3.8648","9.8746"
"233.1530","3.8831","9.9233"
"234.2530","3.9017","9.9753"
"235.3530","3.9203","10.0246"
"236.4530","3.9386","10.0738"
"237.5530","3.9568","10.1218"
"238.6530","3.9749","10.1695"
"239.7530","3.9932","10.2178"
"240.8530","4.0115","10.2661"
"241.9530","4.0299","10.3160"
"243.0530","4.0487","10.3660"
"244.1530","4.0671","10.4154"
"245.2530","4.0851","10.4625"
"246.3530","4.1033","10.5095"
"247.4530","4.1216","10.5592"
"248.5530","4.1399","10.6070"
"249.6530","4.1582","10.6548"
"250.7530","4.1768","10.7047"
"251.8530","4.1955","10.7556"
"252.9530","4.2134","10.8020"
"254.0530","4.2315","10.8483"
"255.1530","4.2499","10.8970"
"256.2530","4.2684","10.9465"
"257.3530","4.2866","10.9939"
"258.4530","4.3051","11.0428"
"259.5530","4.3240","11.0955"
"260.6530","4.3417","11.1398"
"261.7530","4.3597","11.1861"
"262.8530","4.3782","11.2363"
"263.9530","4.3969","11.2874"
"265.0530","4.4150","11.3324"
"266.1530","4.4334","11.3822"
"267.2530","4.4522","11.4329"
"268.3530","4.4701","11.4796"
"269.4530","4.4880","11.5255"
"270.5530","4.5064","11.5734"
"271.6530","4.5253","11.6247"
"272.7530","4.5435","11.6723"
"273.8530","4.5618","11.7209"
"274.9530","4.5803","11.7702"
"276.0530","4.5985","11.8170"
"277.1530","4.6163","11.8624"
"278.2530","4.6347","11.9102"
"279.3530","4.6534","11.9610"
"280.4530","4.6720","12.0097"
"281.5530","4.6901","12.0559"
"282.6530","4.7086","12.1047"
"283.7530","4.7268","12.1522"
"284.8530","4.7448","12.1982"
"285.9530","4.7631","12.2466"
"287.0530","4.7817","12.2940"
"288.1530","4.8004","12.3444"
"289.2530","4.8185","12.3904"
"290.3530","4.8367","12.4369"
"291.4530","4.8552","12.4854"
"292.5530","4.8733","12.5311"
"293.6530","4.8914","12.5774"
"294.7530","4.9100","12.6260"
"295.8530","4.9287","12.6706"
"296.9530","4.9470","12.7175"
"298.0530","4.9650","12.7633"
"299.1530","4.9832","12.8099"
"300.2530","5.0016","12.8572"
"301.3530","5.0199","12.9028"
"302.4530","5.0382","12.9497"
"303.5530","5.0569","12.9987"
"304.6530","5.0755","13.0467"
"305.7530","5.0932","13.0858"
"306.8530","5.1114","13.1316"
"307.9530","5.1300","13.1778"
"308.1690","5.1337","9.9411"
"308.1750","5.1340","7.6863"