File: DestructiveTests/Tensile/FIBERGLASS TENSILE.is_qtest_Exports/FIBERGLASS TENSILE_2.csv
Time,Displacement,Force
(s),(mm),(kN)
"0.0000","0.0000","0.0119"
"1.0000","0.0133","0.0150"
"2.0000","0.0299","0.0157"
"3.0000","0.0465","0.0157"
"4.0000","0.0631","0.0149"
"5.0000","0.0796","0.0156"
"6.0000","0.0963","0.0159"
"7.0000","0.1130","0.0156"
"8.0000","0.1295","0.0156"
"9.0000","0.1462","0.0156"
"10.0000","0.1629","0.0162"
"11.0000","0.1795","0.0165"
"12.0000","0.1961","0.0203"
"13.0000","0.2128","0.0427"
"14.0000","0.2295","0.0653"
"15.0000","0.2462","0.1027"
"16.0000","0.2629","0.1768"
"17.0000","0.2795","0.2676"
"18.0000","0.2962","0.3573"
"19.0000","0.3127","0.4457"
"20.0000","0.3294","0.5347"
"21.0000","0.3461","0.6244"
"22.0000","0.3628","0.7146"
"23.0000","0.3796","0.8063"
"24.0000","0.3962","0.8966"
"25.0000","0.4130","0.9900"
"26.0000","0.4297","1.0809"
"27.0000","0.4464","1.1718"
"28.0000","0.4631","1.2626"
"29.0000","0.4799","1.3527"
"30.0000","0.4966","1.4429"
"31.0000","0.5132","1.5326"
"32.0000","0.5300","1.6227"
"33.0000","0.5466","1.7102"
"34.0000","0.5630","1.7969"
"35.0000","0.5797","1.8837"
"36.0000","0.5961","1.9693"
"37.0000","0.6126","2.0542"
"38.0000","0.6293","2.1401"
"39.0000","0.6459","2.2243"
"40.0000","0.6626","2.3095"
"41.0000","0.6794","2.3931"
"42.0000","0.6961","2.4758"
"43.0000","0.7129","2.5579"
"44.0000","0.7298","2.6412"
"45.0000","0.7466","2.7220"
"46.0000","0.7634","2.8018"
"47.0000","0.7801","2.8806"
"48.0000","0.7967","2.9570"
"49.0000","0.8133","3.0315"
"50.0000","0.8299","3.0913"
"51.0000","0.8463","3.1571"
"52.0000","0.8628","3.2278"
"53.0000","0.8796","3.3007"
"54.0000","0.8961","3.3722"
"55.0000","0.9126","3.4432"
"56.0000","0.9293","3.5135"
"57.0000","0.9459","3.5846"
"58.0000","0.9627","3.6526"
"59.0000","0.9794","3.7206"
"60.0000","0.9961","3.7889"
"61.0000","1.0129","3.8543"
"62.0000","1.0296","3.9202"
"63.0000","1.0464","3.9859"
"64.0000","1.0631","4.0498"
"65.0000","1.0798","4.1123"
"66.0000","1.0965","4.1750"
"67.0000","1.1130","4.2366"
"68.0000","1.1298","4.2974"
"69.0000","1.1463","4.3575"
"70.0000","1.1629","4.4163"
"71.0000","1.1795","4.4774"
"72.0000","1.1962","4.5370"
"73.0000","1.2129","4.5972"
"74.0000","1.2295","4.6568"
"75.0000","1.2461","4.7169"
"76.0000","1.2630","4.7762"
"77.0000","1.2796","4.8353"
"78.0000","1.2962","4.8915"
"79.0000","1.3129","4.9486"
"80.0000","1.3294","5.0012"
"81.0000","1.3460","5.0520"
"82.0000","1.3627","5.1081"
"83.0000","1.3794","5.1627"
"84.0000","1.3962","5.2208"
"85.0000","1.4129","5.2801"
"86.0000","1.4296","5.3378"
"87.0000","1.4463","5.3962"
"88.0000","1.4631","5.4541"
"89.0000","1.4798","5.5132"
"90.0000","1.4966","5.5693"
"91.0000","1.5133","5.6273"
"92.0000","1.5299","5.6825"
"93.0000","1.5466","5.7382"
"94.0000","1.5631","5.7930"
"95.0000","1.5797","5.8464"
"96.0000","1.5963","5.9018"
"97.0000","1.6128","5.9548"
"98.0000","1.6293","6.0080"
"99.0000","1.6460","6.0612"
"100.0000","1.6625","6.1140"
"101.0000","1.6792","6.1674"
"102.0000","1.6960","6.2222"
"103.0000","1.7127","6.2758"
"104.0000","1.7295","6.3296"
"105.0000","1.7465","6.3845"
"106.0000","1.7634","6.4389"
"107.0000","1.7801","6.4920"
"108.0000","1.7969","6.5448"
"109.0000","1.8134","6.5968"
"110.0000","1.8300","6.6485"
"111.0000","1.8465","6.6993"
"112.0000","1.8630","6.7514"
"113.0000","1.8796","6.8014"
"114.0000","1.8962","6.8534"
"115.0000","1.9128","6.9035"
"116.0000","1.9294","6.9551"
"117.0000","1.9460","7.0046"
"118.0000","1.9626","7.0552"
"119.0000","1.9793","7.1068"
"120.0000","1.9960","7.1575"
"121.0000","2.0128","7.2085"
"122.0000","2.0296","7.2596"
"123.0000","2.0463","7.3102"
"124.0000","2.0630","7.3588"
"125.0000","2.0797","7.4082"
"126.0000","2.0963","7.4564"
"127.0000","2.1130","7.5048"
"128.0000","2.1297","7.5513"
"129.0000","2.1463","7.5969"
"130.0000","2.1629","7.6427"
"131.0000","2.1797","7.6904"
"132.0000","2.1962","7.7358"
"133.0000","2.2128","7.7812"
"134.0000","2.2296","7.8291"
"135.0000","2.2463","7.8770"
"136.0000","2.2629","7.9250"
"137.0000","2.2798","7.9742"
"138.0000","2.2963","8.0214"
"139.0000","2.3130","8.0706"
"140.0000","2.3295","8.1179"
"141.0000","2.3460","8.1648"
"142.0000","2.3626","8.2127"
"143.0000","2.3792","8.2586"
"144.0000","2.3959","8.3073"
"145.0000","2.4128","8.3571"
"146.0000","2.4295","8.4044"
"147.0000","2.4463","8.4504"
"148.0000","2.4631","8.4968"
"149.0000","2.4798","8.5407"
"150.0000","2.4966","8.5830"
"151.0000","2.5132","8.6284"
"152.0000","2.5301","8.6742"
"153.0000","2.5467","8.7187"
"154.0000","2.5632","8.7628"
"155.0000","2.5799","8.8094"
"156.0000","2.5964","8.8555"
"157.0000","2.6129","8.9009"
"158.0000","2.6294","8.9480"
"159.0000","2.6460","8.9947"
"160.0000","2.6626","9.0432"
"161.0000","2.6792","9.0913"
"162.0000","2.6959","9.1387"
"163.0000","2.7126","9.1882"
"164.0000","2.7294","9.2376"
"165.0000","2.7463","9.2879"
"166.0000","2.7630","9.3379"
"167.0000","2.7800","9.3878"
"168.0000","2.7967","9.4384"
"169.0000","2.8134","9.4870"
"170.0000","2.8301","9.5364"
"171.0000","2.8466","9.5840"
"172.0000","2.8632","9.6331"
"173.0000","2.8797","9.6818"
"174.0000","2.8963","9.7297"
"175.0000","2.9129","9.7791"
"176.0000","2.9294","9.8266"
"177.0000","2.9461","9.8763"
"178.0000","2.9628","9.9243"
"179.0000","2.9793","9.9729"
"180.0000","2.9961","10.0212"
"181.0000","3.0128","10.0705"
"182.0000","3.0294","10.1188"
"183.0000","3.0461","10.1673"
"184.0000","3.0628","10.2163"
"185.0000","3.0795","10.2639"
"186.0000","3.0963","10.3131"
"187.0000","3.1130","10.3613"
"188.0000","3.1296","10.4093"
"189.0000","3.1462","10.4570"
"190.0000","3.1630","10.5054"
"191.0000","3.1796","10.5537"
"192.0000","3.1963","10.6020"
"193.0000","3.2129","10.6490"
"194.0000","3.2296","10.6973"
"195.0000","3.2464","10.7452"
"196.0000","3.2630","10.7921"
"197.0000","3.2798","10.8406"
"198.0000","3.2965","10.8881"
"199.0000","3.3130","10.9343"
"200.0000","3.3296","10.9798"
"201.0000","3.3461","11.0263"
"202.0000","3.3627","11.0729"
"203.0000","3.3793","11.1169"
"204.0000","3.3959","11.1605"
"205.0000","3.4126","11.2056"
"206.0000","3.4293","11.2509"
"207.0000","3.4461","11.2975"
"208.0000","3.4629","11.3439"
"209.0000","3.4796","11.3884"
"210.0000","3.4965","11.4340"
"211.0000","3.5132","11.4787"
"212.0000","3.5299","11.5231"
"213.0000","3.5468","11.5680"
"214.0000","3.5633","11.6114"
"215.0000","3.5800","11.6554"
"216.0000","3.5964","11.6992"
"217.0000","3.6130","11.7439"
"218.0000","3.6296","11.7883"
"219.0000","3.6462","11.8346"
"220.0000","3.6627","11.8796"
"221.0000","3.6794","11.9252"
"222.0000","3.6960","11.9695"
"223.0000","3.7125","12.0143"
"224.0000","3.7293","12.0595"
"225.0000","3.7460","12.1037"
"226.0000","3.7629","12.1491"
"227.0000","3.7797","12.1950"
"228.0000","3.7966","12.2424"
"229.0000","3.8133","12.2851"
"230.0000","3.8300","12.3301"
"231.0000","3.8466","12.3747"
"232.0000","3.8632","12.4188"
"233.0000","3.8797","12.4640"
"234.0000","3.8964","12.5078"
"235.0000","3.9129","12.5510"
"236.0000","3.9295","12.5954"
"237.0000","3.9462","12.6406"
"238.0000","3.9628","12.6848"
"239.0000","3.9794","12.7291"
"240.0000","3.9961","12.7737"
"241.0000","4.0128","12.8190"
"242.0000","4.0294","12.8636"
"243.0000","4.0462","12.9083"
"244.0000","4.0629","12.9535"
"245.0000","4.0794","12.9976"
"246.0000","4.0961","13.0435"
"247.0000","4.1128","13.0880"
"248.0000","4.1295","13.1334"
"249.0000","4.1462","13.1780"
"250.0000","4.1631","13.2239"
"251.0000","4.1797","13.2687"
"252.0000","4.1963","13.3130"
"253.0000","4.2131","13.3585"
"254.0000","4.2297","13.4025"
"255.0000","4.2464","13.4467"
"256.0000","4.2631","13.4899"
"257.0000","4.2798","13.5344"
"258.0000","4.2964","13.5774"
"259.0000","4.3132","13.6228"
"260.0000","4.3298","13.6656"
"261.0000","4.3463","13.7076"
"262.0000","4.3628","13.7512"
"263.0000","4.3793","13.7935"
"264.0000","4.3959","13.8381"
"265.0000","4.4126","13.8827"
"266.0000","4.4292","13.9271"
"267.0000","4.4460","13.9708"
"268.0000","4.4628","14.0162"
"269.0000","4.4796","14.0615"
"270.0000","4.4964","14.1056"
"271.0000","4.5132","14.1508"
"272.0000","4.5301","14.1948"
"273.0000","4.5467","14.2392"
"273.7790","4.5589","13.2295"
"273.7890","4.5593","9.5781"
"273.7920","4.5595","8.3506"