File: DestructiveTests/Tensile/FIBERGLASS TENSILE.is_qtest_Exports/FIBERGLASS TENSILE_3.csv
Time,Displacement,Force
(s),(mm),(kN)
"0.0000","0.1875","1.9305"
"0.9000","0.1998","2.0117"
"1.8000","0.2146","2.0889"
"2.7000","0.2296","2.1608"
"3.6000","0.2446","2.2309"
"4.5000","0.2596","2.2983"
"5.4000","0.2744","2.3631"
"6.3000","0.2895","2.4287"
"7.2000","0.3048","2.4933"
"8.1000","0.3198","2.5557"
"9.0000","0.3348","2.6161"
"9.9000","0.3494","2.6388"
"10.8000","0.3643","2.6973"
"11.7000","0.3795","2.7584"
"12.6000","0.3947","2.8193"
"13.5000","0.4097","2.8788"
"14.4000","0.4246","2.9365"
"15.3000","0.4398","2.9972"
"16.2000","0.4547","3.0562"
"17.1000","0.4694","3.1139"
"18.0000","0.4843","3.1716"
"18.9000","0.4994","3.2298"
"19.8000","0.5150","3.2924"
"20.7000","0.5301","3.3528"
"21.6000","0.5445","3.4075"
"22.5000","0.5596","3.4659"
"23.4000","0.5747","3.5235"
"24.3000","0.5896","3.5818"
"25.2000","0.6044","3.6368"
"26.1000","0.6195","3.6948"
"27.0000","0.6350","3.7569"
"27.9000","0.6498","3.8113"
"28.8000","0.6644","3.8651"
"29.7000","0.6794","3.9211"
"30.6000","0.6946","3.9778"
"31.5000","0.7097","4.0333"
"32.4000","0.7246","4.0877"
"33.3000","0.7396","4.1446"
"34.2000","0.7550","4.2009"
"35.1000","0.7696","4.2527"
"36.0000","0.7844","4.3068"
"36.9000","0.7993","4.3605"
"37.8000","0.8147","4.4164"
"38.7000","0.8299","4.4735"
"39.6000","0.8447","4.5275"
"40.5000","0.8595","4.5788"
"41.4000","0.8749","4.6352"
"42.3000","0.8896","4.6872"
"43.2000","0.9044","4.7381"
"44.1000","0.9193","4.7901"
"45.0000","0.9347","4.8458"
"45.9000","0.9501","4.8984"
"46.8000","0.9648","4.9493"
"47.7000","0.9794","4.9973"
"48.6000","0.9946","5.0509"
"49.5000","1.0097","5.1038"
"50.4000","1.0246","5.1543"
"51.3000","1.0394","5.2049"
"52.2000","1.0547","5.2585"
"53.1000","1.0703","5.3148"
"54.0000","1.0846","5.3612"
"54.9000","1.0993","5.4093"
"55.8000","1.1144","5.4596"
"56.7000","1.1298","5.5122"
"57.6000","1.1447","5.5498"
"58.5000","1.1596","5.5991"
"59.4000","1.1747","5.6504"
"60.3000","1.1900","5.7004"
"61.2000","1.2046","5.7484"
"62.1000","1.2193","5.7967"
"63.0000","1.2343","5.8469"
"63.9000","1.2498","5.9026"
"64.8000","1.2649","5.9544"
"65.7000","1.2797","6.0042"
"66.6000","1.2945","6.0537"
"67.5000","1.3098","6.1065"
"68.4000","1.3245","6.1555"
"69.3000","1.3393","6.2049"
"70.2000","1.3544","6.2537"
"71.1000","1.3699","6.3099"
"72.0000","1.3850","6.3608"
"72.9000","1.3996","6.4078"
"73.8000","1.4143","6.4561"
"74.7000","1.4297","6.5077"
"75.6000","1.4446","6.5585"
"76.5000","1.4595","6.6071"
"77.4000","1.4744","6.6552"
"78.3000","1.4900","6.7102"
"79.2000","1.5050","6.7589"
"80.1000","1.5194","6.8040"
"81.0000","1.5342","6.8519"
"81.9000","1.5495","6.9010"
"82.8000","1.5648","6.9518"
"83.7000","1.5797","6.9986"
"84.6000","1.5946","7.0449"
"85.5000","1.6098","7.0938"
"86.4000","1.6248","7.1410"
"87.3000","1.6394","7.1867"
"88.2000","1.6542","7.2340"
"89.1000","1.6694","7.2815"
"90.0000","1.6848","7.3319"
"90.9000","1.6999","7.3789"
"91.8000","1.7146","7.4248"
"92.7000","1.7296","7.4729"
"93.6000","1.7447","7.5210"
"94.5000","1.7595","7.5669"
"95.4000","1.7743","7.6124"
"96.3000","1.7895","7.6607"
"97.2000","1.8052","7.7131"
"98.1000","1.8199","7.7590"
"99.0000","1.8344","7.8017"
"99.9000","1.8493","7.8486"
"100.8000","1.8646","7.8966"
"101.7000","1.8796","7.9429"
"102.6000","1.8945","7.9912"
"103.5000","1.9096","8.0384"
"104.4000","1.9252","8.0896"
"105.3000","1.9398","8.1347"
"106.2000","1.9544","8.1776"
"107.1000","1.9693","8.2246"
"108.0000","1.9846","8.2741"
"108.9000","1.9998","8.3221"
"109.8000","2.0147","8.3692"
"110.7000","2.0296","8.4150"
"111.6000","2.0449","8.4640"
"112.5000","2.0595","8.5089"
"113.4000","2.0744","8.5553"
"114.3000","2.0893","8.6003"
"115.2000","2.1047","8.6497"
"116.1000","2.1200","8.6983"
"117.0000","2.1348","8.7409"
"117.9000","2.1494","8.7844"
"118.8000","2.1646","8.8320"
"119.7000","2.1797","8.8797"
"120.6000","2.1945","8.9233"
"121.5000","2.2093","8.9683"
"122.4000","2.2248","9.0156"
"123.3000","2.2402","9.0604"
"124.2000","2.2547","9.1019"
"125.1000","2.2693","9.1434"
"126.0000","2.2844","9.1892"
"126.9000","2.2996","9.2349"
"127.8000","2.3146","9.2797"
"128.7000","2.3296","9.3242"
"129.6000","2.3447","9.3712"
"130.5000","2.3600","9.4187"
"131.4000","2.3746","9.4613"
"132.3000","2.3894","9.5051"
"133.2000","2.4043","9.5500"
"134.1000","2.4198","9.5995"
"135.0000","2.4349","9.6452"
"135.9000","2.4497","9.6890"
"136.8000","2.4646","9.7337"
"137.7000","2.4798","9.7808"
"138.6000","2.4944","9.8229"
"139.5000","2.5094","9.8676"
"140.4000","2.5243","9.9125"
"141.3000","2.5399","9.9611"
"142.2000","2.5549","10.0062"
"143.1000","2.5696","10.0415"
"144.0000","2.5844","10.0772"
"144.9000","2.5996","10.1193"
"145.8000","2.6146","10.1608"
"146.7000","2.6295","10.2006"
"147.6000","2.6444","10.2408"
"148.5000","2.6601","10.2835"
"149.4000","2.6750","10.3241"
"150.3000","2.6895","10.3626"
"151.2000","2.7043","10.4057"
"152.1000","2.7196","10.4510"
"153.0000","2.7346","10.4951"
"153.9000","2.7496","10.5398"
"154.8000","2.7644","10.5821"
"155.7000","2.7800","10.6308"
"156.6000","2.7948","10.6749"
"157.5000","2.8095","10.7175"
"158.4000","2.8242","10.7607"
"159.3000","2.8396","10.8072"
"160.2000","2.8549","10.8538"
"161.1000","2.8699","10.8973"
"162.0000","2.8844","10.9382"
"162.9000","2.8997","10.9810"
"163.8000","2.9148","11.0236"
"164.7000","2.9294","11.0635"
"165.6000","2.9444","11.1057"
"166.5000","2.9595","11.1477"
"167.4000","2.9751","11.1931"
"168.3000","2.9899","11.2333"
"169.2000","3.0044","11.2687"
"170.1000","3.0194","11.3061"
"171.0000","3.0346","11.3388"
"171.9000","3.0495","11.3694"
"172.8000","3.0644","11.4040"
"173.7000","3.0796","11.4397"
"174.6000","3.0952","11.4777"
"175.5000","3.1098","11.5116"
"176.4000","3.1243","11.5467"
"177.3000","3.1393","11.5852"
"178.2000","3.1547","11.6244"
"179.1000","3.1697","11.6653"
"180.0000","3.1846","11.7048"
"180.9000","3.1996","11.7453"
"181.8000","3.2150","11.7886"
"182.7000","3.2296","11.8264"
"183.6000","3.2444","11.8651"
"184.5000","3.2593","11.9055"
"185.4000","3.2747","11.9470"
"186.3000","3.2899","11.9887"
"187.2000","3.3048","12.0277"
"188.1000","3.3195","12.0652"
"189.0000","3.3348","12.1057"
"189.9000","3.3496","12.1438"
"190.8000","3.3644","12.1833"
"191.7000","3.3792","12.2247"
"192.6000","3.3947","12.2697"
"193.5000","3.4101","12.3136"
"194.4000","3.4247","12.3529"
"195.3000","3.4394","12.3934"
"196.2000","3.4545","12.4356"
"197.1000","3.4696","12.4788"
"198.0000","3.4846","12.5222"
"198.9000","3.4995","12.5649"
"199.8000","3.5148","12.6101"
"200.7000","3.5299","12.6552"
"201.6000","3.5447","12.6950"
"202.5000","3.5593","12.7361"
"203.4000","3.5744","12.7794"
"204.3000","3.5897","12.8242"
"205.2000","3.6047","12.8668"
"206.1000","3.6196","12.9080"
"207.0000","3.6347","12.9522"
"207.9000","3.6498","12.9962"
"208.8000","3.6646","13.0374"
"209.7000","3.6794","13.0789"
"210.6000","3.6943","13.1201"
"211.5000","3.7099","13.1669"
"212.4000","3.7250","13.2108"
"213.3000","3.7396","13.2493"
"214.2000","3.7545","13.2920"
"215.1000","3.7697","13.3360"
"216.0000","3.7846","13.3782"
"216.9000","3.7994","13.4191"
"217.8000","3.8144","13.4620"
"218.7000","3.8300","13.5093"
"219.6000","3.8449","13.5513"
"220.5000","3.8595","13.5917"
"221.4000","3.8743","13.6335"
"222.3000","3.8896","13.6785"
"223.2000","3.9047","13.7222"
"224.1000","3.9196","13.7644"
"225.0000","3.9344","13.8052"
"225.9000","3.9500","13.8517"
"226.8000","3.9650","13.8937"
"227.7000","3.9795","13.9319"
"228.6000","3.9942","13.9713"
"229.5000","4.0095","14.0153"
"230.4000","4.0248","14.0583"
"231.3000","4.0398","14.0999"
"232.2000","4.0544","14.1387"
"233.1000","4.0698","14.1835"
"234.0000","4.0848","14.2257"
"234.9000","4.0995","14.2642"
"235.8000","4.1143","14.3054"
"236.7000","4.1295","14.3480"
"237.6000","4.1450","14.3930"
"238.5000","4.1599","14.4338"
"239.4000","4.1744","14.4723"
"240.3000","4.1895","14.5133"
"241.2000","4.2048","14.5564"
"242.1000","4.2196","14.5956"
"243.0000","4.2343","14.6350"
"243.9000","4.2495","14.6753"
"244.8000","4.2652","14.7193"
"245.7000","4.2799","14.7530"
"245.8750","4.2826","12.0793"
"245.8830","4.2830","8.7779"