File: DestructiveTests/Tensile/FLAX TENSILE.is_qtest_Exports/FLAX TENSILE_6.csv
Time,Displacement,Force
(s),(mm),(kN)
"0.0000","0.0000","0.0859"
"0.4000","0.0013","0.0892"
"0.8000","0.0105","0.1113"
"1.2000","0.0173","0.1285"
"1.6000","0.0243","0.1469"
"2.0000","0.0313","0.1655"
"2.4000","0.0375","0.1826"
"2.8000","0.0442","0.1999"
"3.2000","0.0507","0.2157"
"3.6000","0.0574","0.2296"
"4.0000","0.0643","0.2441"
"4.4000","0.0709","0.2597"
"4.8000","0.0777","0.2751"
"5.2000","0.0842","0.2908"
"5.6000","0.0908","0.3055"
"6.0000","0.0975","0.3217"
"6.4000","0.1041","0.3369"
"6.8000","0.1110","0.3536"
"7.2000","0.1177","0.3686"
"7.6000","0.1242","0.3840"
"8.0000","0.1308","0.3998"
"8.4000","0.1374","0.4163"
"8.8000","0.1442","0.4319"
"9.2000","0.1511","0.4484"
"9.6000","0.1576","0.4644"
"10.0000","0.1641","0.4806"
"10.4000","0.1707","0.4963"
"10.8000","0.1773","0.5122"
"11.2000","0.1843","0.5293"
"11.6000","0.1913","0.5480"
"12.0000","0.1975","0.5627"
"12.4000","0.2039","0.5790"
"12.8000","0.2106","0.5954"
"13.2000","0.2177","0.6135"
"13.6000","0.2245","0.6327"
"14.0000","0.2309","0.6484"
"14.4000","0.2373","0.6649"
"14.8000","0.2441","0.6830"
"15.2000","0.2509","0.7018"
"15.6000","0.2576","0.7190"
"16.0000","0.2642","0.7374"
"16.4000","0.2708","0.7536"
"16.8000","0.2777","0.7721"
"17.2000","0.2841","0.7890"
"17.6000","0.2908","0.8063"
"18.0000","0.2973","0.8250"
"18.4000","0.3043","0.8441"
"18.8000","0.3113","0.8634"
"19.2000","0.3174","0.8800"
"19.6000","0.3240","0.8978"
"20.0000","0.3305","0.9146"
"20.4000","0.3379","0.9357"
"20.8000","0.3446","0.9542"
"21.2000","0.3508","0.9709"
"21.6000","0.3572","0.9880"
"22.0000","0.3640","1.0060"
"22.4000","0.3712","1.0282"
"22.8000","0.3778","1.0466"
"23.2000","0.3842","1.0647"
"23.6000","0.3906","1.0801"
"24.0000","0.3976","1.1011"
"24.4000","0.4042","1.1202"
"24.8000","0.4110","1.1391"
"25.2000","0.4175","1.1565"
"25.6000","0.4243","1.1763"
"26.0000","0.4310","1.1955"
"26.4000","0.4374","1.2134"
"26.8000","0.4440","1.2318"
"27.2000","0.4506","1.2491"
"27.6000","0.4579","1.2713"
"28.0000","0.4645","1.2901"
"28.4000","0.4708","1.3089"
"28.8000","0.4772","1.3253"
"29.2000","0.4840","1.3442"
"29.6000","0.4912","1.3661"
"30.0000","0.4979","1.3857"
"30.4000","0.5041","1.4015"
"30.8000","0.5105","1.4195"
"31.2000","0.5175","1.4391"
"31.6000","0.5243","1.4595"
"32.0000","0.5311","1.4784"
"32.4000","0.5374","1.4945"
"32.8000","0.5441","1.5135"
"33.2000","0.5509","1.5314"
"33.6000","0.5575","1.5505"
"34.0000","0.5642","1.5675"
"34.4000","0.5708","1.5859"
"34.8000","0.5778","1.6059"
"35.2000","0.5843","1.6229"
"35.6000","0.5907","1.6389"
"36.0000","0.5973","1.6558"
"36.4000","0.6040","1.6740"
"36.8000","0.6114","1.6940"
"37.2000","0.6179","1.7104"
"37.6000","0.6240","1.7239"
"38.0000","0.6305","1.7391"
"38.4000","0.6374","1.7560"
"38.8000","0.6446","1.7750"
"39.2000","0.6511","1.7917"
"39.6000","0.6573","1.8043"
"40.0000","0.6640","1.8207"
"40.4000","0.6710","1.8386"
"40.8000","0.6777","1.8539"
"41.2000","0.6843","1.8702"
"41.6000","0.6908","1.8841"
"42.0000","0.6975","1.8991"
"42.4000","0.7043","1.9141"
"42.8000","0.7108","1.9293"
"43.2000","0.7175","1.9445"
"43.6000","0.7241","1.9590"
"44.0000","0.7312","1.9756"
"44.4000","0.7376","1.9896"
"44.8000","0.7440","2.0028"
"45.2000","0.7506","2.0163"
"45.6000","0.7574","2.0315"
"46.0000","0.7648","2.0477"
"46.4000","0.7711","2.0619"
"46.8000","0.7773","2.0726"
"47.2000","0.7838","2.0859"
"47.6000","0.7908","2.1009"
"48.0000","0.7979","2.1162"
"48.4000","0.8045","2.1304"
"48.8000","0.8106","2.1410"
"49.2000","0.8173","2.1536"
"49.6000","0.8243","2.1677"
"50.0000","0.8310","2.1811"
"50.4000","0.8377","2.1947"
"50.8000","0.8440","2.2045"
"51.2000","0.8509","2.2192"
"51.6000","0.8574","2.2311"
"52.0000","0.8642","2.2435"
"52.4000","0.8706","2.2552"
"52.8000","0.8774","2.2680"
"53.2000","0.8848","2.2834"
"53.6000","0.8908","2.2922"
"54.0000","0.8974","2.3042"
"54.4000","0.9038","2.3143"
"54.8000","0.9108","2.3281"
"55.2000","0.9182","2.3444"
"55.6000","0.9243","2.3535"
"56.0000","0.9305","2.3633"
"56.4000","0.9371","2.3749"
"56.8000","0.9444","2.3893"
"57.2000","0.9512","2.4014"
"57.6000","0.9578","2.4140"
"58.0000","0.9639","2.4235"
"58.4000","0.9707","2.4350"
"58.8000","0.9777","2.4480"
"59.2000","0.9843","2.4600"
"59.6000","0.9909","2.4724"
"60.0000","0.9974","2.4830"
"60.4000","1.0045","2.4970"
"60.8000","1.0108","2.5080"
"61.2000","1.0175","2.5202"
"61.6000","1.0239","2.5300"
"62.0000","1.0309","2.5451"
"62.4000","1.0383","2.5614"
"62.8000","1.0442","2.5701"
"63.2000","1.0507","2.5812"
"63.6000","1.0572","2.5926"
"64.0000","1.0642","2.6069"
"64.4000","1.0713","2.6226"
"64.8000","1.0777","2.6334"
"65.2000","1.0839","2.6437"
"65.6000","1.0906","2.6564"
"66.0000","1.0977","2.6714"
"66.4000","1.1045","2.6837"
"66.8000","1.1110","2.6952"
"67.2000","1.1174","2.7069"
"67.6000","1.1242","2.7196"
"68.0000","1.1308","2.7318"
"68.4000","1.1376","2.7457"
"68.8000","1.1441","2.7580"
"69.2000","1.1509","2.7702"
"69.6000","1.1578","2.7850"
"70.0000","1.1642","2.7962"
"70.4000","1.1707","2.8091"
"70.8000","1.1772","2.8213"
"71.2000","1.1843","2.8365"
"71.6000","1.1914","2.8508"
"72.0000","1.1976","2.8619"
"72.4000","1.2039","2.8729"
"72.8000","1.2106","2.8857"
"73.2000","1.2177","2.9014"
"73.6000","1.2247","2.9163"
"74.0000","1.2309","2.9274"
"74.4000","1.2372","2.9390"
"74.8000","1.2441","2.9541"
"75.2000","1.2509","2.9679"
"75.6000","1.2577","2.9817"
"76.0000","1.2643","2.9942"
"76.4000","1.2707","3.0059"
"76.8000","1.2776","3.0207"
"77.2000","1.2842","3.0336"
"77.6000","1.2909","3.0476"
"78.0000","1.2974","3.0602"
"78.4000","1.3044","3.0746"
"78.8000","1.3112","3.0883"
"79.2000","1.3175","3.1019"
"79.6000","1.3240","3.1136"
"80.0000","1.3305","3.1270"
"80.4000","1.3378","3.1433"
"80.8000","1.3446","3.1581"
"81.2000","1.3508","3.1688"
"81.6000","1.3572","3.1809"
"82.0000","1.3639","3.1950"
"82.4000","1.3711","3.2107"
"82.8000","1.3779","3.2263"
"83.2000","1.3842","3.2385"
"83.6000","1.3906","3.2499"
"84.0000","1.3975","3.2649"
"84.4000","1.4042","3.2785"
"84.8000","1.4110","3.2933"
"85.2000","1.4175","3.3069"
"85.6000","1.4241","3.3197"
"86.0000","1.4309","3.3340"
"86.4000","1.4375","3.3473"
"86.8000","1.4442","3.3618"
"87.2000","1.4506","3.3746"
"87.6000","1.4578","3.3920"
"88.0000","1.4645","3.4030"
"88.4000","1.4707","3.4147"
"88.8000","1.4773","3.4296"
"89.2000","1.4839","3.4428"
"89.6000","1.4913","3.4600"
"90.0000","1.4981","3.4749"
"90.4000","1.5040","3.4853"
"90.8000","1.5106","3.4985"
"91.2000","1.5173","3.5134"
"91.6000","1.5244","3.5298"
"92.0000","1.5313","3.5450"
"92.4000","1.5376","3.5570"
"92.8000","1.5439","3.5674"
"93.2000","1.5508","3.5839"
"93.6000","1.5577","3.5994"
"94.0000","1.5643","3.6131"
"94.4000","1.5709","3.6282"
"94.8000","1.5775","3.6420"
"95.2000","1.5844","3.6563"
"95.6000","1.5909","3.6699"
"96.0000","1.5974","3.6832"
"96.4000","1.6040","3.6981"
"96.8000","1.6112","3.7152"
"97.2000","1.6180","3.7304"
"97.6000","1.6240","3.7417"
"98.0000","1.6305","3.7550"
"98.4000","1.6373","3.7713"
"98.8000","1.6446","3.7886"
"99.2000","1.6511","3.8018"
"99.6000","1.6574","3.8118"
"100.0000","1.6638","3.8260"
"100.4000","1.6708","3.8418"
"100.7180","1.6766","3.5500"
"100.7300","1.6769","2.3165"
"100.7310","1.6769","2.2057"