File: DestructiveTests/Tensile/FLAX TENSILE.is_qtest_Exports/FLAX TENSILE_5.csv
Time,Displacement,Force
(s),(mm),(kN)
"0.0000","0.0000","0.0162"
"0.4000","0.0012","0.0201"
"0.8000","0.0103","0.0666"
"1.2000","0.0170","0.1012"
"1.6000","0.0237","0.1332"
"2.0000","0.0307","0.1667"
"2.4000","0.0373","0.1991"
"2.8000","0.0437","0.2299"
"3.2000","0.0502","0.2619"
"3.6000","0.0570","0.2945"
"4.0000","0.0638","0.3268"
"4.4000","0.0707","0.3591"
"4.8000","0.0772","0.3895"
"5.2000","0.0836","0.4189"
"5.6000","0.0902","0.4485"
"6.0000","0.0971","0.4799"
"6.4000","0.1040","0.5112"
"6.8000","0.1107","0.5406"
"7.2000","0.1170","0.5665"
"7.6000","0.1237","0.5955"
"8.0000","0.1304","0.6239"
"8.4000","0.1372","0.6528"
"8.8000","0.1438","0.6814"
"9.2000","0.1504","0.7097"
"9.6000","0.1573","0.7392"
"10.0000","0.1638","0.7650"
"10.4000","0.1703","0.7925"
"10.8000","0.1768","0.8196"
"11.2000","0.1838","0.8480"
"11.6000","0.1908","0.8785"
"12.0000","0.1971","0.9045"
"12.4000","0.2037","0.9299"
"12.8000","0.2101","0.9549"
"13.2000","0.2172","0.9841"
"13.6000","0.2242","1.0124"
"14.0000","0.2306","1.0380"
"14.4000","0.2368","1.0621"
"14.8000","0.2435","1.0869"
"15.2000","0.2506","1.1162"
"15.6000","0.2575","1.1427"
"16.0000","0.2639","1.1673"
"16.4000","0.2701","1.1904"
"16.8000","0.2771","1.2182"
"17.2000","0.2838","1.2427"
"17.6000","0.2905","1.2688"
"18.0000","0.2970","1.2930"
"18.4000","0.3038","1.3194"
"18.8000","0.3108","1.3453"
"19.2000","0.3170","1.3680"
"19.6000","0.3237","1.3933"
"20.0000","0.3302","1.4169"
"20.4000","0.3373","1.4435"
"20.8000","0.3441","1.4695"
"21.2000","0.3504","1.4907"
"21.6000","0.3569","1.5152"
"22.0000","0.3634","1.5378"
"22.4000","0.3707","1.5645"
"22.8000","0.3776","1.5901"
"23.2000","0.3839","1.6123"
"23.6000","0.3901","1.6327"
"24.0000","0.3970","1.6582"
"24.4000","0.4039","1.6831"
"24.8000","0.4107","1.7076"
"25.2000","0.4172","1.7286"
"25.6000","0.4236","1.7514"
"26.0000","0.4305","1.7757"
"26.4000","0.4371","1.7991"
"26.8000","0.4439","1.8230"
"27.2000","0.4503","1.8455"
"27.6000","0.4572","1.8701"
"28.0000","0.4640","1.8922"
"28.4000","0.4704","1.9133"
"28.8000","0.4770","1.9362"
"29.2000","0.4835","1.9582"
"29.6000","0.4908","1.9845"
"30.0000","0.4976","2.0083"
"30.4000","0.5038","2.0291"
"30.8000","0.5101","2.0483"
"31.2000","0.5168","2.0718"
"31.6000","0.5240","2.0970"
"32.0000","0.5309","2.1205"
"32.4000","0.5371","2.1416"
"32.8000","0.5435","2.1619"
"33.2000","0.5503","2.1852"
"33.6000","0.5573","2.2076"
"34.0000","0.5639","2.2307"
"34.4000","0.5704","2.2517"
"34.8000","0.5771","2.2745"
"35.2000","0.5839","2.2967"
"35.6000","0.5905","2.3183"
"36.0000","0.5971","2.3404"
"36.4000","0.6036","2.3610"
"36.8000","0.6107","2.3854"
"37.2000","0.6174","2.4071"
"37.6000","0.6236","2.4278"
"38.0000","0.6302","2.4482"
"38.4000","0.6369","2.4706"
"38.8000","0.6442","2.4949"
"39.2000","0.6510","2.5181"
"39.6000","0.6569","2.5350"
"40.0000","0.6634","2.5558"
"40.4000","0.6703","2.5785"
"40.8000","0.6773","2.6018"
"41.2000","0.6843","2.6258"
"41.6000","0.6904","2.6449"
"42.0000","0.6969","2.6660"
"42.4000","0.7037","2.6865"
"42.8000","0.7106","2.7092"
"43.2000","0.7172","2.7292"
"43.6000","0.7237","2.7503"
"44.0000","0.7305","2.7713"
"44.4000","0.7373","2.7933"
"44.8000","0.7438","2.8138"
"45.2000","0.7503","2.8347"
"45.6000","0.7570","2.8541"
"46.0000","0.7642","2.8778"
"46.4000","0.7706","2.8978"
"46.8000","0.7770","2.9172"
"47.2000","0.7835","2.9365"
"47.6000","0.7902","2.9589"
"48.0000","0.7974","2.9815"
"48.4000","0.8042","3.0025"
"48.8000","0.8103","3.0199"
"49.2000","0.8167","3.0389"
"49.6000","0.8237","3.0610"
"50.0000","0.8306","3.0820"
"50.4000","0.8373","3.1037"
"50.8000","0.8436","3.1225"
"51.2000","0.8502","3.1422"
"51.6000","0.8571","3.1637"
"52.0000","0.8638","3.1834"
"52.4000","0.8704","3.2035"
"52.8000","0.8770","3.2230"
"53.2000","0.8840","3.2450"
"53.6000","0.8906","3.2640"
"54.0000","0.8970","3.2828"
"54.4000","0.9036","3.3021"
"54.8000","0.9103","3.3217"
"55.2000","0.9175","3.3447"
"55.6000","0.9241","3.3644"
"56.0000","0.9303","3.3820"
"56.4000","0.9367","3.4004"
"56.8000","0.9436","3.4208"
"57.2000","0.9508","3.4438"
"57.6000","0.9573","3.4618"
"58.0000","0.9636","3.4794"
"58.4000","0.9701","3.4974"
"58.8000","0.9771","3.5184"
"59.2000","0.9840","3.5384"
"59.6000","0.9906","3.5573"
"60.0000","0.9970","3.5761"
"60.4000","1.0037","3.5948"
"60.8000","1.0105","3.6142"
"61.2000","1.0171","3.6344"
"61.6000","1.0238","3.6518"
"62.0000","1.0304","3.6705"
"62.4000","1.0374","3.6909"
"62.8000","1.0439","3.7104"
"63.2000","1.0503","3.7278"
"63.6000","1.0569","3.7471"
"64.0000","1.0637","3.7660"
"64.4000","1.0710","3.7886"
"64.8000","1.0772","3.8037"
"65.2000","1.0836","3.8208"
"65.6000","1.0901","3.8379"
"66.0000","1.0971","3.8574"
"66.4000","1.1042","3.8791"
"66.8000","1.1107","3.8962"
"67.2000","1.1170","3.9136"
"67.6000","1.1236","3.9318"
"68.0000","1.1305","3.9513"
"68.4000","1.1373","3.9699"
"68.8000","1.1439","3.9886"
"69.2000","1.1503","4.0048"
"69.6000","1.1572","4.0246"
"70.0000","1.1638","4.0421"
"70.4000","1.1704","4.0604"
"70.8000","1.1771","4.0779"
"71.2000","1.1837","4.0953"
"71.6000","1.1908","4.1166"
"72.0000","1.1971","4.1316"
"72.4000","1.2036","4.1495"
"72.8000","1.2102","4.1668"
"73.2000","1.2171","4.1871"
"73.6000","1.2243","4.2076"
"74.0000","1.2306","4.2232"
"74.4000","1.2369","4.2385"
"74.8000","1.2435","4.2572"
"75.2000","1.2505","4.2765"
"75.6000","1.2575","4.2951"
"76.0000","1.2640","4.3128"
"76.4000","1.2703","4.3294"
"76.8000","1.2769","4.3465"
"77.2000","1.2839","4.3652"
"77.6000","1.2904","4.3829"
"78.0000","1.2972","4.4018"
"78.4000","1.3037","4.4180"
"78.8000","1.3106","4.4366"
"79.2000","1.3171","4.4531"
"79.6000","1.3237","4.4708"
"80.0000","1.3303","4.4877"
"80.4000","1.3371","4.5064"
"80.8000","1.3442","4.5261"
"81.2000","1.3505","4.5426"
"81.6000","1.3569","4.5583"
"82.0000","1.3634","4.5749"
"82.4000","1.3705","4.5955"
"82.8000","1.3776","4.6133"
"83.2000","1.3839","4.6287"
"83.6000","1.3901","4.6440"
"84.0000","1.3968","4.6613"
"84.4000","1.4039","4.6809"
"84.8000","1.4108","4.6998"
"85.2000","1.4173","4.7168"
"85.6000","1.4235","4.7318"
"86.0000","1.4304","4.7505"
"86.4000","1.4371","4.7675"
"86.8000","1.4438","4.7845"
"87.2000","1.4504","4.8019"
"87.6000","1.4570","4.8177"
"88.0000","1.4640","4.8378"
"88.4000","1.4705","4.8525"
"88.8000","1.4770","4.8700"
"89.2000","1.4836","4.8867"
"89.6000","1.4905","4.9038"
"90.0000","1.4976","4.9234"
"90.4000","1.5038","4.9368"
"90.8000","1.5102","4.9526"
"91.2000","1.5167","4.9682"
"91.6000","1.5239","4.9878"
"92.0000","1.5310","5.0056"
"92.4000","1.5371","5.0191"
"92.8000","1.5435","5.0345"
"93.2000","1.5502","5.0510"
"93.6000","1.5572","5.0696"
"94.0000","1.5641","5.0866"
"94.4000","1.5707","5.1022"
"94.8000","1.5768","5.1166"
"95.2000","1.5838","5.1343"
"95.6000","1.5905","5.1527"
"96.0000","1.5971","5.1675"
"96.4000","1.6038","5.1840"
"96.8000","1.6105","5.1997"
"97.2000","1.6174","5.2182"
"97.6000","1.6238","5.2328"
"98.0000","1.6302","5.2472"
"98.4000","1.6368","5.2621"
"98.8000","1.6440","5.2757"
"99.2000","1.6509","5.2912"
"99.6000","1.6571","5.3011"
"99.8380","1.6611","4.7131"
"99.8460","1.6612","3.5858"
"99.8490","1.6613","3.1298"