File: DestructiveTests/Tensile/FLAX TENSILE.is_qtest_Exports/FLAX TENSILE_1.csv
Time,Displacement,Force
(s),(mm),(kN)
"0.0000","0.0000","0.0168"
"0.9000","0.0126","0.0543"
"1.8000","0.0274","0.0883"
"2.7000","0.0422","0.1171"
"3.6000","0.0571","0.1420"
"4.5000","0.0723","0.1632"
"5.4000","0.0876","0.1827"
"6.3000","0.1026","0.2010"
"7.2000","0.1172","0.2150"
"8.1000","0.1325","0.2291"
"9.0000","0.1474","0.2384"
"9.9000","0.1623","0.2478"
"10.8000","0.1771","0.2564"
"11.7000","0.1924","0.2654"
"12.6000","0.2078","0.2759"
"13.5000","0.2225","0.2841"
"14.4000","0.2372","0.2911"
"15.3000","0.2522","0.2990"
"16.2000","0.2674","0.3069"
"17.1000","0.2824","0.3151"
"18.0000","0.2973","0.3237"
"18.9000","0.3124","0.3311"
"19.8000","0.3280","0.3406"
"20.7000","0.3423","0.3462"
"21.6000","0.3571","0.3525"
"22.5000","0.3720","0.3590"
"23.4000","0.3874","0.3681"
"24.3000","0.4025","0.3759"
"25.2000","0.4175","0.3838"
"26.1000","0.4323","0.3900"
"27.0000","0.4477","0.3996"
"27.9000","0.4623","0.4062"
"28.8000","0.4772","0.4124"
"29.7000","0.4920","0.4189"
"30.6000","0.5076","0.4275"
"31.5000","0.5227","0.4347"
"32.4000","0.5375","0.4422"
"33.3000","0.5522","0.4476"
"34.2000","0.5674","0.4546"
"35.1000","0.5823","0.4615"
"36.0000","0.5972","0.4688"
"36.9000","0.6121","0.4748"
"37.8000","0.6276","0.4832"
"38.7000","0.6428","0.4911"
"39.6000","0.6573","0.4963"
"40.5000","0.6721","0.5012"
"41.4000","0.6873","0.5072"
"42.3000","0.7024","0.5146"
"43.2000","0.7173","0.5211"
"44.1000","0.7322","0.5271"
"45.0000","0.7476","0.5340"
"45.9000","0.7628","0.5409"
"46.8000","0.7773","0.5453"
"47.7000","0.7919","0.5494"
"48.6000","0.8072","0.5564"
"49.5000","0.8226","0.5637"
"50.4000","0.8378","0.5698"
"51.3000","0.8523","0.5728"
"52.2000","0.8675","0.5781"
"53.1000","0.8826","0.5842"
"54.0000","0.8973","0.5890"
"54.9000","0.9121","0.5945"
"55.8000","0.9272","0.6008"
"56.7000","0.9428","0.6087"
"57.6000","0.9578","0.6163"
"58.5000","0.9724","0.6211"
"59.4000","0.9872","0.6263"
"60.3000","1.0025","0.6336"
"61.2000","1.0172","0.6391"
"62.1000","1.0322","0.6454"
"63.0000","1.0472","0.6511"
"63.9000","1.0629","0.6600"
"64.8000","1.0776","0.6658"
"65.7000","1.0923","0.6709"
"66.6000","1.1071","0.6758"
"67.5000","1.1224","0.6842"
"68.4000","1.1374","0.6908"
"69.3000","1.1524","0.6967"
"70.2000","1.1673","0.7021"
"71.1000","1.1828","0.7106"
"72.0000","1.1975","0.7159"
"72.9000","1.2121","0.7215"
"73.8000","1.2270","0.7270"
"74.7000","1.2424","0.7341"
"75.6000","1.2576","0.7409"
"76.5000","1.2725","0.7466"
"77.4000","1.2873","0.7522"
"78.3000","1.3026","0.7597"
"79.2000","1.3173","0.7656"
"80.1000","1.3321","0.7711"
"81.0000","1.3471","0.7772"
"81.9000","1.3624","0.7851"
"82.8000","1.3779","0.7926"
"83.7000","1.3927","0.7990"
"84.6000","1.4071","0.8045"
"85.5000","1.4224","0.8120"
"86.4000","1.4374","0.8187"
"87.3000","1.4523","0.8244"
"88.2000","1.4671","0.8298"
"89.1000","1.4824","0.8374"
"90.0000","1.4979","0.8459"
"90.9000","1.5124","0.8515"
"91.8000","1.5271","0.8571"
"92.7000","1.5422","0.8634"
"93.6000","1.5574","0.8706"
"94.5000","1.5724","0.8776"
"95.4000","1.5874","0.8853"
"96.3000","1.6023","0.8906"
"97.2000","1.6178","0.8988"
"98.1000","1.6324","0.9041"
"99.0000","1.6471","0.9095"
"99.9000","1.6620","0.9153"
"100.8000","1.6776","0.9245"
"101.7000","1.6926","0.9319"
"102.6000","1.7075","0.9379"
"103.5000","1.7222","0.9444"
"104.4000","1.7376","0.9526"
"105.3000","1.7524","0.9587"
"106.2000","1.7671","0.9649"
"107.1000","1.7821","0.9711"
"108.0000","1.7976","0.9803"
"108.9000","1.8127","0.9876"
"109.8000","1.8274","0.9938"
"110.7000","1.8421","1.0011"
"111.6000","1.8574","1.0092"
"112.5000","1.8723","1.0157"
"113.4000","1.8873","1.0236"
"114.3000","1.9022","1.0292"
"115.2000","1.9178","1.0386"
"116.1000","1.9327","1.0474"
"117.0000","1.9472","1.0522"
"117.9000","1.9620","1.0581"
"118.8000","1.9774","1.0655"
"119.7000","1.9925","1.0738"
"120.6000","2.0075","1.0819"
"121.5000","2.0223","1.0881"
"122.4000","2.0377","1.0971"
"123.3000","2.0525","1.1036"
"124.2000","2.0672","1.1091"
"125.1000","2.0820","1.1151"
"126.0000","2.0972","1.1224"
"126.9000","2.1126","1.1307"
"127.8000","2.1277","1.1384"
"128.7000","2.1423","1.1443"
"129.6000","2.1573","1.1512"
"130.5000","2.1726","1.1595"
"131.4000","2.1872","1.1651"
"132.3000","2.2022","1.1719"
"133.2000","2.2172","1.1785"
"134.1000","2.2330","1.1884"
"135.0000","2.2478","1.1955"
"135.9000","2.2623","1.2010"
"136.8000","2.2771","1.2071"
"137.7000","2.2926","1.2154"
"138.6000","2.3074","1.2216"
"139.5000","2.3223","1.2278"
"140.4000","2.3373","1.2350"
"141.3000","2.3530","1.2461"
"142.2000","2.3675","1.2510"
"143.1000","2.3822","1.2574"
"144.0000","2.3971","1.2641"
"144.9000","2.4124","1.2722"
"145.8000","2.4275","1.2794"
"146.7000","2.4424","1.2874"
"147.6000","2.4573","1.2944"
"148.5000","2.4727","1.3024"
"149.4000","2.4874","1.3082"
"150.3000","2.5021","1.3144"
"151.2000","2.5171","1.3214"
"152.1000","2.5324","1.3299"
"153.0000","2.5478","1.3391"
"153.9000","2.5626","1.3462"
"154.8000","2.5772","1.3518"
"155.7000","2.5924","1.3619"
"156.6000","2.6074","1.3697"
"157.5000","2.6223","1.3761"
"158.4000","2.6371","1.3827"
"159.3000","2.6525","1.3918"
"160.2000","2.6678","1.4018"
"161.1000","2.6825","1.4083"
"162.0000","2.6971","1.4139"
"162.9000","2.7122","1.4226"
"163.8000","2.7274","1.4321"
"164.7000","2.7424","1.4409"
"165.6000","2.7573","1.4487"
"166.5000","2.7724","1.4575"
"167.4000","2.7879","1.4673"
"168.3000","2.8024","1.4735"
"169.2000","2.8171","1.4826"
"170.1000","2.8321","1.4901"
"171.0000","2.8476","1.5002"
"171.9000","2.8626","1.5085"
"172.8000","2.8774","1.5148"
"173.7000","2.8924","1.5226"
"174.6000","2.9076","1.5324"
"175.5000","2.9222","1.5377"
"176.4000","2.9372","1.5449"
"177.3000","2.9521","1.5518"
"178.2000","2.9677","1.5629"
"179.1000","2.9828","1.5715"
"180.0000","2.9975","1.5784"
"180.9000","3.0122","1.5847"
"181.8000","3.0274","1.5929"
"182.7000","3.0424","1.6010"
"183.6000","3.0572","1.6088"
"184.5000","3.0721","1.6155"
"185.4000","3.0877","1.6266"
"186.3000","3.1028","1.6358"
"187.2000","3.1173","1.6421"
"188.1000","3.1321","1.6495"
"189.0000","3.1473","1.6582"
"189.9000","3.1624","1.6672"
"190.8000","3.1775","1.6755"
"191.7000","3.1923","1.6832"
"192.6000","3.2077","1.6928"
"193.5000","3.2226","1.7000"
"194.4000","3.2373","1.7073"
"195.3000","3.2520","1.7143"
"196.2000","3.2672","1.7239"
"197.1000","3.2825","1.7342"
"198.0000","3.2977","1.7436"
"198.9000","3.3123","1.7519"
"199.8000","3.3274","1.7605"
"200.7000","3.3426","1.7712"
"201.6000","3.3572","1.7787"
"202.5000","3.3721","1.7862"
"203.4000","3.3872","1.7952"
"204.3000","3.4028","1.8085"
"205.2000","3.4177","1.8170"
"206.1000","3.4322","1.8249"
"207.0000","3.4472","1.8324"
"207.9000","3.4624","1.8432"
"208.8000","3.4774","1.8517"
"209.7000","3.4922","1.8581"
"210.6000","3.5072","1.8667"
"211.5000","3.5229","1.8770"
"212.4000","3.5376","1.8842"
"213.3000","3.5522","1.8906"
"214.2000","3.5671","1.8977"
"215.1000","3.5824","1.9075"
"216.0000","3.5974","1.9161"
"216.9000","3.6126","1.9256"
"217.8000","3.6274","1.9332"
"218.7000","3.6427","1.9437"
"219.6000","3.6574","1.9506"
"220.5000","3.6723","1.9595"
"221.4000","3.6871","1.9690"
"222.3000","3.7025","1.9800"
"223.2000","3.7177","1.9900"
"224.1000","3.7327","1.9994"
"225.0000","3.7472","2.0074"
"225.9000","3.7625","2.0174"
"226.8000","3.7774","2.0247"
"227.7000","3.7922","2.0334"
"228.6000","3.8070","2.0426"
"229.5000","3.8224","2.0526"
"230.4000","3.8379","2.0653"
"231.3000","3.8524","2.0724"
"232.2000","3.8672","2.0807"
"233.1000","3.8823","2.0906"
"234.0000","3.8973","2.0998"
"234.9000","3.9125","2.1105"
"235.8000","3.9271","2.1189"
"236.7000","3.9425","2.1295"
"237.6000","3.9580","2.1390"
"238.5000","3.9724","2.1461"
"239.4000","3.9871","2.1538"
"240.3000","4.0021","2.1650"
"241.2000","4.0175","2.1757"
"242.1000","4.0326","2.1839"
"243.0000","4.0474","2.1926"
"243.9000","4.0624","2.2036"
"244.8000","4.0777","2.2155"
"245.7000","4.0923","2.2242"
"246.6000","4.1071","2.2342"
"247.5000","4.1221","2.2445"
"248.4000","4.1376","2.2585"
"249.3000","4.1527","2.2700"
"250.2000","4.1675","2.2803"
"251.1000","4.1822","2.2903"
"252.0000","4.1975","2.3028"
"252.9000","4.2124","2.3138"
"253.8000","4.2272","2.3245"
"254.7000","4.2421","2.3355"
"255.6000","4.2578","2.3489"
"256.5000","4.2728","2.3616"
"257.4000","4.2873","2.3710"
"258.3000","4.3021","2.3807"
"259.2000","4.3174","2.3935"
"260.1000","4.3324","2.4056"
"261.0000","4.3474","2.4160"
"261.9000","4.3622","2.4266"
"262.8000","4.3777","2.4376"
"262.8470","4.3783","1.4030"