File: DestructiveTests/Tensile/FLAX TENSILE.is_qtest_Exports/FLAX TENSILE_7.csv
Time,Displacement,Force
(s),(mm),(kN)
"0.0000","0.0000","0.0452"
"0.4000","0.0013","0.0452"
"0.8000","0.0108","0.0454"
"1.2000","0.0175","0.0458"
"1.6000","0.0244","0.0458"
"2.0000","0.0305","0.0457"
"2.4000","0.0371","0.0458"
"2.8000","0.0440","0.0461"
"3.2000","0.0509","0.0462"
"3.6000","0.0577","0.0465"
"4.0000","0.0640","0.0467"
"4.4000","0.0705","0.0471"
"4.8000","0.0772","0.0485"
"5.2000","0.0841","0.0539"
"5.6000","0.0909","0.0620"
"6.0000","0.0975","0.0682"
"6.4000","0.1039","0.0731"
"6.8000","0.1106","0.0823"
"7.2000","0.1173","0.0962"
"7.6000","0.1242","0.1119"
"8.0000","0.1309","0.1306"
"8.4000","0.1372","0.1468"
"8.8000","0.1439","0.1616"
"9.2000","0.1505","0.1760"
"9.6000","0.1575","0.1932"
"10.0000","0.1642","0.2096"
"10.4000","0.1707","0.2249"
"10.8000","0.1773","0.2396"
"11.2000","0.1839","0.2578"
"11.6000","0.1907","0.2768"
"12.0000","0.1973","0.2962"
"12.4000","0.2040","0.3157"
"12.8000","0.2109","0.3364"
"13.2000","0.2175","0.3560"
"13.6000","0.2239","0.3737"
"14.0000","0.2304","0.3937"
"14.4000","0.2372","0.4149"
"14.8000","0.2445","0.4375"
"15.2000","0.2509","0.4563"
"15.6000","0.2572","0.4756"
"16.0000","0.2636","0.4953"
"16.4000","0.2706","0.5169"
"16.8000","0.2777","0.5403"
"17.2000","0.2843","0.5607"
"17.6000","0.2905","0.5792"
"18.0000","0.2971","0.5984"
"18.4000","0.3040","0.6205"
"18.8000","0.3108","0.6430"
"19.2000","0.3175","0.6646"
"19.6000","0.3239","0.6847"
"20.0000","0.3307","0.7069"
"20.4000","0.3375","0.7289"
"20.8000","0.3440","0.7497"
"21.2000","0.3507","0.7699"
"21.6000","0.3572","0.7907"
"22.0000","0.3644","0.8150"
"22.4000","0.3708","0.8365"
"22.8000","0.3773","0.8562"
"23.2000","0.3837","0.8776"
"23.6000","0.3905","0.8999"
"24.0000","0.3980","0.9248"
"24.4000","0.4042","0.9450"
"24.8000","0.4105","0.9650"
"25.2000","0.4169","0.9852"
"25.6000","0.4240","1.0084"
"26.0000","0.4310","1.0334"
"26.4000","0.4377","1.0547"
"26.8000","0.4439","1.0748"
"27.2000","0.4504","1.0952"
"27.6000","0.4575","1.1198"
"28.0000","0.4641","1.1415"
"28.4000","0.4708","1.1638"
"28.8000","0.4772","1.1851"
"29.2000","0.4842","1.2080"
"29.6000","0.4907","1.2298"
"30.0000","0.4973","1.2504"
"30.4000","0.5039","1.2732"
"30.8000","0.5106","1.2948"
"31.2000","0.5177","1.3202"
"31.6000","0.5241","1.3398"
"32.0000","0.5305","1.3604"
"32.4000","0.5370","1.3825"
"32.8000","0.5440","1.4051"
"33.2000","0.5512","1.4300"
"33.6000","0.5575","1.4508"
"34.0000","0.5637","1.4707"
"34.4000","0.5703","1.4905"
"34.8000","0.5773","1.5154"
"35.2000","0.5843","1.5378"
"35.6000","0.5909","1.5591"
"36.0000","0.5972","1.5791"
"36.4000","0.6039","1.6008"
"36.8000","0.6107","1.6233"
"37.2000","0.6174","1.6445"
"37.6000","0.6240","1.6659"
"38.0000","0.6306","1.6866"
"38.4000","0.6375","1.7095"
"38.8000","0.6440","1.7283"
"39.2000","0.6506","1.7494"
"39.6000","0.6571","1.7691"
"40.0000","0.6641","1.7924"
"40.4000","0.6712","1.8145"
"40.8000","0.6773","1.8330"
"41.2000","0.6839","1.8523"
"41.6000","0.6904","1.8721"
"42.0000","0.6974","1.8917"
"42.4000","0.7046","1.9138"
"42.8000","0.7108","1.9311"
"43.2000","0.7170","1.9490"
"43.6000","0.7237","1.9672"
"44.0000","0.7308","1.9897"
"44.4000","0.7376","2.0084"
"44.8000","0.7442","2.0268"
"45.2000","0.7505","2.0415"
"45.6000","0.7573","2.0605"
"46.0000","0.7641","2.0784"
"46.4000","0.7707","2.0948"
"46.8000","0.7775","2.1124"
"47.2000","0.7840","2.1290"
"47.6000","0.7910","2.1470"
"48.0000","0.7973","2.1612"
"48.4000","0.8038","2.1769"
"48.8000","0.8104","2.1927"
"49.2000","0.8175","2.2096"
"49.6000","0.8244","2.2278"
"50.0000","0.8306","2.2425"
"50.4000","0.8372","2.2572"
"50.8000","0.8437","2.2726"
"51.2000","0.8508","2.2903"
"51.6000","0.8578","2.3075"
"52.0000","0.8641","2.3227"
"52.4000","0.8704","2.3366"
"52.8000","0.8772","2.3533"
"53.2000","0.8841","2.3703"
"53.6000","0.8909","2.3869"
"54.0000","0.8974","2.4026"
"54.4000","0.9038","2.4183"
"54.8000","0.9108","2.4352"
"55.2000","0.9173","2.4501"
"55.6000","0.9240","2.4682"
"56.0000","0.9305","2.4829"
"56.4000","0.9375","2.5000"
"56.8000","0.9443","2.5173"
"57.2000","0.9506","2.5306"
"57.6000","0.9571","2.5472"
"58.0000","0.9637","2.5633"
"58.4000","0.9710","2.5820"
"58.8000","0.9778","2.5992"
"59.2000","0.9840","2.6141"
"59.6000","0.9904","2.6288"
"60.0000","0.9970","2.6450"
"60.4000","1.0043","2.6655"
"60.8000","1.0112","2.6821"
"61.2000","1.0174","2.6952"
"61.6000","1.0237","2.7101"
"62.0000","1.0306","2.7272"
"62.4000","1.0374","2.7449"
"62.8000","1.0442","2.7621"
"63.2000","1.0507","2.7775"
"63.6000","1.0572","2.7934"
"64.0000","1.0641","2.8115"
"64.4000","1.0707","2.8286"
"64.8000","1.0773","2.8434"
"65.2000","1.0838","2.8589"
"65.6000","1.0909","2.8776"
"66.0000","1.0977","2.8943"
"66.4000","1.1039","2.9090"
"66.8000","1.1104","2.9238"
"67.2000","1.1171","2.9398"
"67.6000","1.1244","2.9601"
"68.0000","1.1312","2.9767"
"68.4000","1.1372","2.9899"
"68.8000","1.1436","3.0044"
"69.2000","1.1505","3.0219"
"69.6000","1.1576","3.0392"
"70.0000","1.1644","3.0570"
"70.4000","1.1707","3.0713"
"70.8000","1.1771","3.0852"
"71.2000","1.1840","3.1034"
"71.6000","1.1907","3.1194"
"72.0000","1.1975","3.1357"
"72.4000","1.2040","3.1522"
"72.8000","1.2107","3.1678"
"73.2000","1.2175","3.1844"
"73.6000","1.2239","3.1991"
"74.0000","1.2305","3.2140"
"74.4000","1.2371","3.2312"
"74.8000","1.2444","3.2491"
"75.2000","1.2510","3.2649"
"75.6000","1.2572","3.2785"
"76.0000","1.2637","3.2940"
"76.4000","1.2705","3.3105"
"76.8000","1.2778","3.3283"
"77.2000","1.2843","3.3449"
"77.6000","1.2905","3.3576"
"78.0000","1.2970","3.3724"
"78.4000","1.3039","3.3910"
"78.8000","1.3110","3.4087"
"79.2000","1.3176","3.4246"
"79.6000","1.3239","3.4393"
"80.0000","1.3305","3.4541"
"80.4000","1.3374","3.4712"
"80.8000","1.3440","3.4866"
"81.2000","1.3507","3.5032"
"81.6000","1.3573","3.5180"
"82.0000","1.3642","3.5354"
"82.4000","1.3709","3.5509"
"82.8000","1.3773","3.5655"
"83.2000","1.3838","3.5816"
"83.6000","1.3905","3.5976"
"84.0000","1.3978","3.6160"
"84.4000","1.4042","3.6327"
"84.8000","1.4105","3.6452"
"85.2000","1.4170","3.6592"
"85.6000","1.4238","3.6763"
"86.0000","1.4311","3.6951"
"86.4000","1.4376","3.7111"
"86.8000","1.4439","3.7250"
"87.2000","1.4503","3.7398"
"87.6000","1.4573","3.7563"
"88.0000","1.4643","3.7748"
"88.4000","1.4709","3.7907"
"88.8000","1.4773","3.8038"
"89.2000","1.4838","3.8183"
"89.6000","1.4907","3.8355"
"90.0000","1.4973","3.8508"
"90.4000","1.5040","3.8678"
"90.8000","1.5106","3.8825"
"91.2000","1.5176","3.8999"
"91.6000","1.5241","3.9150"
"92.0000","1.5305","3.9298"
"92.4000","1.5371","3.9450"
"92.8000","1.5438","3.9601"
"93.2000","1.5511","3.9787"
"93.6000","1.5577","3.9946"
"94.0000","1.5638","4.0074"
"94.4000","1.5703","4.0220"
"94.8000","1.5772","4.0387"
"95.2000","1.5846","4.0584"
"95.6000","1.5909","4.0719"
"96.0000","1.5972","4.0860"
"96.1120","1.5994","3.2471"
"96.1190","1.5996","2.4294"