File: DestructiveTests/Tensile/FLAX TENSILE.is_qtest_Exports/FLAX TENSILE_3.csv
Time,Displacement,Force
(s),(mm),(kN)
"0.0000","0.0000","0.0115"
"1.4000","0.0203","0.1111"
"2.8000","0.0439","0.2211"
"4.2000","0.0675","0.3275"
"5.6000","0.0907","0.4265"
"7.0000","0.1141","0.5238"
"8.4000","0.1373","0.6141"
"9.8000","0.1606","0.7001"
"11.2000","0.1838","0.7774"
"12.6000","0.2070","0.8483"
"14.0000","0.2303","0.9103"
"15.4000","0.2541","0.9675"
"16.8000","0.2774","1.0147"
"18.2000","0.3005","1.0485"
"19.6000","0.3242","1.0739"
"21.0000","0.3476","1.1000"
"22.4000","0.3704","1.1211"
"23.8000","0.3936","1.1442"
"25.2000","0.4173","1.1697"
"26.6000","0.4405","1.1981"
"28.0000","0.4638","1.2272"
"29.4000","0.4870","1.2605"
"30.8000","0.5110","1.2990"
"32.2000","0.5342","1.3339"
"33.6000","0.5571","1.3702"
"35.0000","0.5806","1.4085"
"36.4000","0.6041","1.4494"
"37.8000","0.6272","1.4882"
"39.2000","0.6503","1.5269"
"40.6000","0.6738","1.5678"
"42.0000","0.6975","1.6102"
"43.4000","0.7207","1.6497"
"44.8000","0.7438","1.6888"
"46.2000","0.7677","1.7296"
"47.6000","0.7907","1.7667"
"49.0000","0.8137","1.8027"
"50.4000","0.8370","1.8399"
"51.8000","0.8606","1.8779"
"53.2000","0.8839","1.9143"
"54.6000","0.9070","1.9497"
"56.0000","0.9306","1.9873"
"57.4000","0.9544","2.0225"
"58.8000","0.9773","2.0532"
"60.2000","1.0004","2.0843"
"61.6000","1.0241","2.1178"
"63.0000","1.0472","2.1488"
"64.4000","1.0703","2.1812"
"65.8000","1.0936","2.2139"
"67.2000","1.1173","2.2485"
"68.6000","1.1408","2.2815"
"70.0000","1.1639","2.3135"
"71.4000","1.1873","2.3448"
"72.8000","1.2110","2.3770"
"74.2000","1.2339","2.4055"
"75.6000","1.2569","2.4314"
"77.0000","1.2805","2.4611"
"78.4000","1.3039","2.4870"
"79.8000","1.3273","2.5095"
"81.2000","1.3503","2.5304"
"82.6000","1.3743","2.5542"
"84.0000","1.3978","2.5764"
"85.4000","1.4206","2.5943"
"86.8000","1.4437","2.6117"
"88.2000","1.4675","2.6325"
"89.6000","1.4904","2.6496"
"91.0000","1.5137","2.6649"
"92.4000","1.5370","2.6775"
"93.8000","1.5607","2.6915"
"95.2000","1.5841","2.7016"
"96.6000","1.6072","2.7106"
"98.0000","1.6309","2.7254"
"99.4000","1.6542","2.7348"
"100.8000","1.6771","2.7420"
"102.2000","1.7003","2.7485"
"103.6000","1.7239","2.7564"
"105.0000","1.7472","2.7619"
"106.4000","1.7704","2.7664"
"107.8000","1.7938","2.7678"
"109.2000","1.8177","2.7689"
"110.6000","1.8408","2.7632"
"112.0000","1.8638","2.7516"
"113.4000","1.8873","2.7382"
"114.8000","1.9106","2.7211"
"116.2000","1.9338","2.7021"
"117.6000","1.9569","2.6798"
"119.0000","1.9806","2.6606"
"120.4000","2.0042","2.6415"
"121.8000","2.0275","2.6178"
"123.2000","2.0505","2.5902"
"124.6000","2.0744","2.5677"
"126.0000","2.0974","2.5408"
"127.4000","2.1202","2.5122"
"128.8000","2.1437","2.4891"
"130.2000","2.1672","2.4637"
"131.6000","2.1906","2.4328"
"133.0000","2.2137","2.4015"
"134.4000","2.2374","2.3732"
"135.8000","2.2611","2.3469"
"137.2000","2.2841","2.3221"
"138.6000","2.3071","2.2920"
"140.0000","2.3307","2.2703"
"141.4000","2.3538","2.2493"
"142.8000","2.3770","2.2254"
"144.2000","2.4003","2.1978"
"145.6000","2.4241","2.1731"
"147.0000","2.4475","2.1467"
"148.4000","2.4705","2.1256"
"149.8000","2.4940","2.1100"
"151.2000","2.5176","2.0953"
"152.6000","2.5405","2.0807"
"154.0000","2.5635","2.0694"
"155.4000","2.5871","2.0620"
"156.8000","2.6106","2.0531"
"158.2000","2.6339","2.0438"
"159.6000","2.6570","2.0309"
"161.0000","2.6810","2.0237"
"162.4000","2.7043","2.0151"
"163.8000","2.7273","2.0036"
"165.2000","2.7504","1.9919"
"166.6000","2.7741","1.9854"
"168.0000","2.7970","1.9720"
"169.4000","2.8203","1.9603"
"170.8000","2.8438","1.9500"
"172.2000","2.8675","1.9415"
"173.6000","2.8907","1.9296"
"175.0000","2.9139","1.9203"
"176.4000","2.9376","1.9114"
"177.8000","2.9607","1.8992"
"179.2000","2.9837","1.8885"
"180.6000","3.0069","1.8791"
"182.0000","3.0306","1.8733"
"183.4000","3.0539","1.8661"
"184.8000","3.0771","1.8576"
"186.2000","3.1005","1.8479"
"187.6000","3.1244","1.8387"
"189.0000","3.1475","1.8276"
"190.4000","3.1704","1.8152"
"191.8000","3.1939","1.8069"
"193.2000","3.2173","1.7963"
"194.6000","3.2404","1.7837"
"196.0000","3.2636","1.7709"
"197.4000","3.2873","1.7547"
"198.8000","3.3108","1.7401"
"200.2000","3.3341","1.7249"
"201.6000","3.3572","1.7095"
"203.0000","3.3810","1.7028"
"204.4000","3.4039","1.6902"
"205.8000","3.4269","1.6803"
"207.2000","3.4504","1.6756"
"208.6000","3.4739","1.6726"
"210.0000","3.4973","1.6670"
"211.4000","3.5204","1.6633"
"212.8000","3.5442","1.6652"
"214.2000","3.5677","1.6628"
"215.6000","3.5907","1.6556"
"217.0000","3.6137","1.6480"
"218.4000","3.6374","1.6438"
"219.8000","3.6605","1.6362"
"221.2000","3.6836","1.6297"
"222.6000","3.7070","1.6205"
"224.0000","3.7309","1.6140"
"225.4000","3.7542","1.6053"
"226.8000","3.7772","1.5922"
"228.2000","3.8008","1.5841"
"229.6000","3.8243","1.5807"
"231.0000","3.8472","1.5710"
"232.4000","3.8702","1.5635"
"233.8000","3.8939","1.5631"
"235.2000","3.9173","1.5579"
"236.6000","3.9406","1.5535"
"238.0000","3.9637","1.5495"
"239.4000","3.9877","1.5512"
"240.8000","4.0109","1.5487"
"242.2000","4.0338","1.5449"
"243.6000","4.0572","1.5428"
"245.0000","4.0807","1.5413"
"246.4000","4.1038","1.5349"
"247.8000","4.1269","1.5285"
"249.2000","4.1505","1.5224"
"250.6000","4.1742","1.5185"
"252.0000","4.1975","1.5114"
"253.4000","4.2206","1.5023"
"254.8000","4.2443","1.4928"
"256.2000","4.2674","1.4815"
"257.6000","4.2903","1.4677"
"259.0000","4.3136","1.4577"
"260.4000","4.3373","1.4504"
"261.8000","4.3606","1.4403"
"263.2000","4.3838","1.4328"
"264.6000","4.4072","1.4227"
"266.0000","4.4310","1.4177"
"267.4000","4.4540","1.4103"
"268.8000","4.4770","1.4048"
"270.2000","4.5006","1.4063"
"271.6000","4.5239","1.4074"
"273.0000","4.5471","1.4067"
"274.4000","4.5702","1.4034"
"275.8000","4.5940","1.4030"
"277.2000","4.6176","1.4016"
"278.6000","4.6406","1.3961"
"280.0000","4.6640","1.3898"
"281.4000","4.6876","1.3869"
"282.8000","4.7105","1.3791"
"284.2000","4.7336","1.3698"
"285.6000","4.7571","1.3641"
"287.0000","4.7806","1.3618"
"288.4000","4.8039","1.3568"
"289.8000","4.8269","1.3499"
"291.2000","4.8508","1.3472"
"292.6000","4.8745","1.3418"
"294.0000","4.8973","1.3327"
"295.4000","4.9203","1.3254"
"296.8000","4.9440","1.3216"
"298.2000","4.9672","1.3146"
"299.6000","4.9903","1.3085"
"301.0000","5.0136","1.3043"
"302.4000","5.0375","1.3038"
"303.8000","5.0609","1.3019"
"305.2000","5.0838","1.2963"
"306.6000","5.1075","1.2955"
"308.0000","5.1309","1.2941"
"309.4000","5.1538","1.2888"
"310.8000","5.1769","1.2843"
"312.2000","5.2006","1.2819"
"313.6000","5.2239","1.2773"
"315.0000","5.2472","1.2732"
"316.4000","5.2704","1.2701"
"317.8000","5.2944","1.2705"
"319.2000","5.3176","1.2662"
"320.6000","5.3405","1.2582"
"322.0000","5.3639","1.2518"
"323.4000","5.3874","1.2496"
"324.8000","5.4104","1.2434"
"326.2000","5.4336","1.2366"
"327.6000","5.4572","1.2312"
"329.0000","5.4810","1.2272"
"330.4000","5.5041","1.2206"
"331.8000","5.5271","1.2148"
"333.2000","5.5510","1.2136"
"334.6000","5.5740","1.2111"
"336.0000","5.5970","1.2083"
"337.4000","5.6202","1.2064"
"338.8000","5.6439","1.2068"
"340.2000","5.6673","1.2042"
"341.6000","5.6904","1.1991"
"343.0000","5.7140","1.1974"
"344.4000","5.7378","1.1992"
"345.8000","5.7607","1.1958"
"347.2000","5.7836","1.1907"
"348.6000","5.8073","1.1904"
"350.0000","5.8305","1.1871"
"351.4000","5.8537","1.1836"
"352.8000","5.8769","1.1818"
"354.2000","5.9006","1.1806"
"355.6000","5.9242","1.1771"
"357.0000","5.9473","1.1700"
"358.4000","5.9706","1.1668"
"359.8000","5.9942","1.1668"
"361.2000","6.0173","1.1614"
"362.6000","6.0402","1.1534"
"364.0000","6.0638","1.1496"
"365.4000","6.0873","1.1460"
"366.8000","6.1106","1.1406"
"368.2000","6.1337","1.1346"
"369.6000","6.1576","1.1342"
"371.0000","6.1811","1.1326"
"372.4000","6.2040","1.1277"
"373.8000","6.2270","1.1210"
"375.2000","6.2507","1.1199"
"376.6000","6.2738","1.1168"
"378.0000","6.2969","1.1147"
"379.4000","6.3203","1.1134"
"380.8000","6.3441","1.1157"
"382.2000","6.3674","1.1145"
"383.6000","6.3905","1.1131"
"385.0000","6.4142","1.1119"
"386.4000","6.4374","1.1086"
"387.8000","6.4604","1.1026"
"389.2000","6.4836","1.0972"
"390.6000","6.5072","1.0940"
"392.0000","6.5306","1.0887"
"392.1080","6.5324","1.0889"