File: DestructiveTests/Tensile/FLAX TENSILE.is_qtest_Exports/FLAX TENSILE_8.csv
Time,Displacement,Force
(s),(mm),(kN)
"0.0000","0.0041","0.1297"
"0.3000","0.0048","0.1333"
"0.6000","0.0124","0.1659"
"0.9000","0.0168","0.1832"
"1.2000","0.0213","0.2016"
"1.5000","0.0266","0.2237"
"1.8000","0.0316","0.2440"
"2.1000","0.0363","0.2634"
"2.4000","0.0417","0.2861"
"2.7000","0.0463","0.3048"
"3.0000","0.0516","0.3263"
"3.3000","0.0567","0.3491"
"3.6000","0.0613","0.3665"
"3.9000","0.0668","0.3888"
"4.2000","0.0714","0.4075"
"4.5000","0.0765","0.4285"
"4.8000","0.0817","0.4498"
"5.1000","0.0863","0.4677"
"5.4000","0.0917","0.4905"
"5.7000","0.0964","0.5095"
"6.0000","0.1015","0.5286"
"6.3000","0.1068","0.5507"
"6.6000","0.1113","0.5674"
"6.9000","0.1166","0.5892"
"7.2000","0.1215","0.6075"
"7.5000","0.1263","0.6269"
"7.8000","0.1317","0.6480"
"8.1000","0.1364","0.6658"
"8.4000","0.1415","0.6853"
"8.7000","0.1466","0.7058"
"9.0000","0.1514","0.7237"
"9.3000","0.1566","0.7438"
"9.6000","0.1614","0.7607"
"9.9000","0.1665","0.7804"
"10.2000","0.1716","0.7992"
"10.5000","0.1764","0.8173"
"10.8000","0.1814","0.8375"
"11.1000","0.1865","0.8564"
"11.4000","0.1915","0.8762"
"11.7000","0.1965","0.8952"
"12.0000","0.2016","0.9144"
"12.3000","0.2064","0.9316"
"12.6000","0.2116","0.9511"
"12.9000","0.2165","0.9700"
"13.2000","0.2214","0.9882"
"13.5000","0.2268","1.0092"
"13.8000","0.2312","1.0267"
"14.1000","0.2366","1.0466"
"14.4000","0.2414","1.0658"
"14.7000","0.2462","1.0818"
"15.0000","0.2519","1.1044"
"15.3000","0.2562","1.1207"
"15.6000","0.2617","1.1409"
"15.9000","0.2665","1.1592"
"16.2000","0.2712","1.1761"
"16.5000","0.2770","1.1992"
"16.8000","0.2811","1.2142"
"17.1000","0.2866","1.2350"
"17.4000","0.2916","1.2536"
"17.7000","0.2963","1.2710"
"18.0000","0.3018","1.2917"
"18.3000","0.3062","1.3093"
"18.6000","0.3115","1.3278"
"18.9000","0.3166","1.3465"
"19.2000","0.3215","1.3645"
"19.5000","0.3266","1.3845"
"19.8000","0.3314","1.4011"
"20.1000","0.3364","1.4199"
"20.4000","0.3415","1.4382"
"20.7000","0.3467","1.4584"
"21.0000","0.3514","1.4752"
"21.3000","0.3565","1.4923"
"21.6000","0.3614","1.5117"
"21.9000","0.3663","1.5278"
"22.2000","0.3718","1.5494"
"22.5000","0.3764","1.5637"
"22.8000","0.3817","1.5839"
"23.1000","0.3865","1.6011"
"23.4000","0.3911","1.6165"
"23.7000","0.3971","1.6381"
"24.0000","0.4012","1.6518"
"24.3000","0.4067","1.6721"
"24.6000","0.4115","1.6885"
"24.9000","0.4161","1.7049"
"25.2000","0.4220","1.7242"
"25.5000","0.4261","1.7378"
"25.8000","0.4317","1.7575"
"26.1000","0.4366","1.7742"
"26.4000","0.4413","1.7911"
"26.7000","0.4469","1.8093"
"27.0000","0.4511","1.8236"
"27.3000","0.4566","1.8426"
"27.6000","0.4616","1.8599"
"27.9000","0.4665","1.8751"
"28.2000","0.4716","1.8916"
"28.5000","0.4763","1.9063"
"28.8000","0.4815","1.9234"
"29.1000","0.4864","1.9400"
"29.4000","0.4917","1.9573"
"29.7000","0.4965","1.9719"
"30.0000","0.5017","1.9905"
"30.3000","0.5064","2.0052"
"30.6000","0.5113","2.0200"
"30.9000","0.5167","2.0382"
"31.2000","0.5212","2.0512"
"31.5000","0.5268","2.0702"
"31.8000","0.5314","2.0845"
"32.1000","0.5362","2.0989"
"32.4000","0.5418","2.1172"
"32.7000","0.5462","2.1307"
"33.0000","0.5518","2.1485"
"33.3000","0.5564","2.1619"
"33.6000","0.5613","2.1765"
"33.9000","0.5668","2.1949"
"34.2000","0.5711","2.2056"
"34.5000","0.5767","2.2245"
"34.8000","0.5815","2.2382"
"35.1000","0.5864","2.2529"
"35.4000","0.5918","2.2708"
"35.7000","0.5963","2.2834"
"36.0000","0.6015","2.2994"
"36.3000","0.6065","2.3135"
"36.6000","0.6114","2.3284"
"36.9000","0.6166","2.3454"
"37.2000","0.6214","2.3579"
"37.5000","0.6265","2.3729"
"37.8000","0.6315","2.3882"
"38.1000","0.6366","2.4032"
"38.4000","0.6414","2.4170"
"38.7000","0.6467","2.4330"
"39.0000","0.6513","2.4457"
"39.3000","0.6564","2.4602"
"39.6000","0.6617","2.4770"
"39.9000","0.6662","2.4884"
"40.2000","0.6719","2.5065"
"40.5000","0.6764","2.5186"
"40.8000","0.6813","2.5309"
"41.1000","0.6868","2.5489"
"41.4000","0.6912","2.5608"
"41.7000","0.6969","2.5779"
"42.0000","0.7013","2.5900"
"42.3000","0.7063","2.6041"
"42.6000","0.7118","2.6214"
"42.9000","0.7161","2.6321"
"43.2000","0.7217","2.6487"
"43.5000","0.7264","2.6625"
"43.8000","0.7315","2.6765"
"44.1000","0.7368","2.6907"
"44.4000","0.7413","2.7028"
"44.7000","0.7466","2.7182"
"45.0000","0.7514","2.7310"
"45.3000","0.7565","2.7462"
"45.6000","0.7616","2.7609"
"45.9000","0.7665","2.7732"
"46.2000","0.7715","2.7875"
"46.5000","0.7764","2.8014"
"46.8000","0.7816","2.8158"
"47.1000","0.7864","2.8304"
"47.4000","0.7918","2.8444"
"47.7000","0.7964","2.8561"
"48.0000","0.8014","2.8695"
"48.3000","0.8066","2.8847"
"48.6000","0.8112","2.8961"
"48.9000","0.8170","2.9141"
"49.2000","0.8212","2.9241"
"49.5000","0.8263","2.9372"
"49.8000","0.8318","2.9545"
"50.1000","0.8362","2.9648"
"50.4000","0.8420","2.9817"
"50.7000","0.8463","2.9922"
"51.0000","0.8514","3.0048"
"51.3000","0.8567","3.0203"
"51.6000","0.8611","3.0304"
"51.9000","0.8669","3.0482"
"52.2000","0.8713","3.0582"
"52.5000","0.8765","3.0723"
"52.8000","0.8817","3.0842"
"53.1000","0.8862","3.0957"
"53.4000","0.8916","3.1109"
"53.7000","0.8964","3.1240"
"54.0000","0.9015","3.1367"
"54.3000","0.9066","3.1514"
"54.6000","0.9115","3.1637"
"54.9000","0.9166","3.1766"
"55.2000","0.9215","3.1898"
"55.5000","0.9266","3.2030"
"55.8000","0.9314","3.2152"
"56.1000","0.9368","3.2311"
"56.4000","0.9414","3.2422"
"56.7000","0.9464","3.2544"
"57.0000","0.9516","3.2684"
"57.3000","0.9562","3.2790"
"57.6000","0.9621","3.2970"
"57.9000","0.9664","3.3069"
"58.2000","0.9714","3.3196"
"58.5000","0.9767","3.3331"
"58.8000","0.9811","3.3436"
"59.1000","0.9871","3.3615"
"59.4000","0.9913","3.3706"
"59.7000","0.9964","3.3846"
"60.0000","1.0017","3.3989"
"60.3000","1.0061","3.4091"
"60.6000","1.0119","3.4257"
"60.9000","1.0163","3.4364"
"61.2000","1.0216","3.4498"
"61.5000","1.0268","3.4629"
"61.8000","1.0312","3.4730"
"62.1000","1.0367","3.4870"
"62.4000","1.0413","3.4980"
"62.7000","1.0466","3.5126"
"63.0000","1.0516","3.5250"
"63.3000","1.0565","3.5370"
"63.6000","1.0615","3.5498"
"63.9000","1.0664","3.5616"
"64.2000","1.0716","3.5751"
"64.5000","1.0764","3.5875"
"64.8000","1.0819","3.6033"
"65.1000","1.0864","3.6125"
"65.4000","1.0915","3.6261"
"65.7000","1.0965","3.6388"
"66.0000","1.1012","3.6487"
"66.3000","1.1070","3.6657"
"66.6000","1.1113","3.6744"
"66.9000","1.1165","3.6875"
"67.2000","1.1216","3.7015"
"67.5000","1.1261","3.7116"
"67.8000","1.1320","3.7283"
"68.1000","1.1362","3.7368"
"68.4000","1.1415","3.7510"
"68.7000","1.1467","3.7646"
"69.0000","1.1512","3.7745"
"69.3000","1.1568","3.7905"
"69.6000","1.1612","3.7995"
"69.9000","1.1666","3.8122"
"70.2000","1.1718","3.8264"
"70.5000","1.1764","3.8361"
"70.8000","1.1817","3.8495"
"71.1000","1.1863","3.8602"
"71.4000","1.1915","3.8747"
"71.7000","1.1966","3.8861"
"72.0000","1.2015","3.8986"
"72.3000","1.2065","3.9110"
"72.6000","1.2115","3.9240"
"72.9000","1.2165","3.9360"
"73.2000","1.2214","3.9482"
"73.5000","1.2268","3.9629"
"73.8000","1.2314","3.9721"
"74.1000","1.2366","3.9872"
"74.4000","1.2415","3.9980"
"74.7000","1.2462","4.0097"
"75.0000","1.2520","4.0264"
"75.3000","1.2562","4.0352"
"75.6000","1.2616","4.0489"
"75.9000","1.2666","4.0625"
"76.2000","1.2712","4.0721"
"76.5000","1.2771","4.0888"
"76.8000","1.2812","4.0972"
"77.1000","1.2866","4.1126"
"77.4000","1.2916","4.1245"
"77.7000","1.2964","4.1344"
"78.0000","1.3019","4.1506"
"78.3000","1.3062","4.1596"
"78.6000","1.3116","4.1732"
"78.9000","1.3167","4.1870"
"79.2000","1.3214","4.1985"
"79.5000","1.3267","4.2117"
"79.8000","1.3313","4.2217"
"80.1000","1.3365","4.2344"
"80.4000","1.3415","4.2446"
"80.4740","1.3428","3.3364"
"80.4810","1.3430","2.4965"