File: DestructiveTests/Tensile/FLAX TENSILE.is_qtest_Exports/FLAX TENSILE_4.csv
Time,Displacement,Force
(s),(mm),(kN)
"0.0000","-0.0041","0.1262"
"1.5000","0.0186","0.2425"
"3.0000","0.0434","0.3662"
"4.5000","0.0682","0.4875"
"6.0000","0.0931","0.6045"
"7.5000","0.1181","0.7228"
"9.0000","0.1431","0.8349"
"10.5000","0.1682","0.9465"
"12.0000","0.1933","1.0556"
"13.5000","0.2184","1.1615"
"15.0000","0.2434","1.2637"
"16.5000","0.2685","1.3629"
"18.0000","0.2932","1.4561"
"19.5000","0.3181","1.5457"
"21.0000","0.3429","1.6330"
"22.5000","0.3678","1.7166"
"24.0000","0.3930","1.7988"
"25.5000","0.4180","1.8757"
"27.0000","0.4433","1.9505"
"28.5000","0.4685","2.0215"
"30.0000","0.4937","2.0885"
"31.5000","0.5188","2.1504"
"33.0000","0.5435","2.2097"
"34.5000","0.5682","2.2669"
"36.0000","0.5931","2.3245"
"37.5000","0.6180","2.3790"
"39.0000","0.6429","2.4328"
"40.5000","0.6679","2.4876"
"42.0000","0.6930","2.5396"
"43.5000","0.7180","2.5902"
"45.0000","0.7432","2.6394"
"46.5000","0.7684","2.6840"
"48.0000","0.7935","2.7257"
"49.5000","0.8185","2.7644"
"51.0000","0.8433","2.7998"
"52.5000","0.8682","2.8323"
"54.0000","0.8932","2.8648"
"55.5000","0.9182","2.8979"
"57.0000","0.9431","2.9310"
"58.5000","0.9682","2.9643"
"60.0000","0.9932","2.9938"
"61.5000","1.0182","3.0194"
"63.0000","1.0431","3.0397"
"64.5000","1.0680","3.0595"
"66.0000","1.0930","3.0808"
"67.5000","1.1181","3.1058"
"69.0000","1.1432","3.1303"
"70.5000","1.1683","3.1573"
"72.0000","1.1934","3.1924"
"73.5000","1.2184","3.2281"
"75.0000","1.2435","3.2629"
"76.5000","1.2686","3.2977"
"78.0000","1.2934","3.3291"
"79.5000","1.3183","3.3639"
"81.0000","1.3430","3.3996"
"82.5000","1.3679","3.4376"
"84.0000","1.3928","3.4742"
"85.5000","1.4179","3.5120"
"87.0000","1.4430","3.5475"
"88.5000","1.4685","3.5851"
"90.0000","1.4938","3.6196"
"91.5000","1.5189","3.6475"
"93.0000","1.5436","3.6683"
"94.5000","1.5684","3.6909"
"96.0000","1.5932","3.7161"
"97.5000","1.6181","3.7471"
"99.0000","1.6430","3.7802"
"100.5000","1.6679","3.8143"
"102.0000","1.6929","3.8493"
"103.5000","1.7179","3.8847"
"105.0000","1.7431","3.9204"
"106.5000","1.7683","3.9553"
"108.0000","1.7934","3.9885"
"109.5000","1.8184","4.0193"
"111.0000","1.8433","4.0503"
"112.5000","1.8683","4.0775"
"114.0000","1.8932","4.1073"
"115.5000","1.9181","4.1367"
"117.0000","1.9431","4.1677"
"118.5000","1.9681","4.1968"
"120.0000","1.9933","4.2249"
"121.5000","2.0183","4.2515"
"123.0000","2.0432","4.2740"
"124.5000","2.0680","4.2991"
"126.0000","2.0929","4.3232"
"127.5000","2.1179","4.3486"
"129.0000","2.1431","4.3765"
"130.5000","2.1682","4.4006"
"132.0000","2.1933","4.4255"
"133.5000","2.2184","4.4503"
"135.0000","2.2435","4.4727"
"136.5000","2.2685","4.4938"
"138.0000","2.2934","4.5132"
"139.5000","2.3183","4.5303"
"141.0000","2.3431","4.5410"
"142.5000","2.3679","4.5484"
"144.0000","2.3929","4.5554"
"145.5000","2.4178","4.5567"
"147.0000","2.4430","4.5504"
"148.5000","2.4682","4.5381"
"150.0000","2.4934","4.5260"
"151.5000","2.5186","4.5158"
"153.0000","2.5438","4.5175"
"154.5000","2.5686","4.5231"
"156.0000","2.5934","4.5269"
"157.5000","2.6183","4.5211"
"159.0000","2.6431","4.5016"
"160.5000","2.6680","4.4743"
"162.0000","2.6930","4.4401"
"163.5000","2.7180","4.4111"
"165.0000","2.7430","4.3801"
"166.5000","2.7681","4.3578"
"168.0000","2.7932","4.3399"
"169.5000","2.8183","4.3083"
"171.0000","2.8433","4.2867"
"172.5000","2.8683","4.2662"
"174.0000","2.8932","4.2439"
"175.5000","2.9183","4.2189"
"177.0000","2.9432","4.1963"
"178.5000","2.9683","4.1763"
"180.0000","2.9933","4.1511"
"181.5000","3.0183","4.1351"
"183.0000","3.0432","4.1138"
"184.5000","3.0681","4.0880"
"186.0000","3.0929","4.0692"
"187.5000","3.1179","4.0443"
"189.0000","3.1430","4.0035"
"190.5000","3.1681","3.9634"
"192.0000","3.1933","3.9277"
"193.5000","3.2185","3.8868"
"195.0000","3.2436","3.8465"
"196.5000","3.2687","3.8047"
"198.0000","3.2934","3.7772"
"199.5000","3.3184","3.7520"
"201.0000","3.3432","3.7236"
"202.5000","3.3681","3.6922"
"204.0000","3.3930","3.6582"
"205.5000","3.4178","3.6230"
"207.0000","3.4429","3.5894"
"208.5000","3.4679","3.5573"
"210.0000","3.4934","3.5233"
"211.5000","3.5186","3.4967"
"213.0000","3.5437","3.4755"
"214.5000","3.5687","3.4618"
"216.0000","3.5935","3.4563"
"217.5000","3.6182","3.4499"
"219.0000","3.6432","3.4429"
"220.5000","3.6680","3.4310"
"222.0000","3.6932","3.4227"
"223.5000","3.7180","3.4151"
"225.0000","3.7431","3.4083"
"226.5000","3.7680","3.3963"
"228.0000","3.7931","3.3781"
"229.5000","3.8182","3.3586"
"231.0000","3.8432","3.3431"
"232.5000","3.8683","3.3276"
"234.0000","3.8933","3.3138"
"235.5000","3.9182","3.3033"
"237.0000","3.9433","3.2987"
"238.5000","3.9683","3.2928"
"240.0000","3.9934","3.2871"
"241.5000","4.0183","3.2763"
"243.0000","4.0434","3.2652"
"244.5000","4.0682","3.2488"
"246.0000","4.0931","3.2328"
"247.5000","4.1179","3.2101"
"249.0000","4.1429","3.1872"
"250.5000","4.1680","3.1665"
"252.0000","4.1931","3.1486"
"253.5000","4.2184","3.1255"
"255.0000","4.2435","3.0992"
"256.5000","4.2688","3.0776"
"258.0000","4.2937","3.0587"
"259.5000","4.3186","3.0409"
"261.0000","4.3434","3.0257"
"262.5000","4.3683","3.0113"
"264.0000","4.3930","2.9892"
"265.5000","4.4180","2.9764"
"267.0000","4.4429","2.9575"
"268.5000","4.4679","2.9344"
"270.0000","4.4931","2.9178"
"271.5000","4.5183","2.9097"
"273.0000","4.5436","2.9042"
"274.5000","4.5686","2.8997"
"276.0000","4.5936","2.8993"
"277.5000","4.6184","2.8997"
"279.0000","4.6432","2.8975"
"280.5000","4.6682","2.8972"
"282.0000","4.6931","2.8954"
"283.5000","4.7181","2.8927"
"285.0000","4.7430","2.8891"
"286.5000","4.7682","2.8787"
"288.0000","4.7931","2.8615"
"289.5000","4.8181","2.8420"
"291.0000","4.8431","2.8241"
"292.5000","4.8681","2.8141"
"294.0000","4.8932","2.8056"
"295.5000","4.9183","2.7974"
"297.0000","4.9433","2.7839"
"298.5000","4.9682","2.7761"
"300.0000","4.9934","2.7697"
"301.5000","5.0184","2.7641"
"303.0000","5.0435","2.7536"
"304.5000","5.0684","2.7460"
"306.0000","5.0932","2.7361"
"307.5000","5.1180","2.7180"
"309.0000","5.1429","2.7045"
"310.5000","5.1678","2.6957"
"312.0000","5.1931","2.6822"
"313.5000","5.2182","2.6619"
"315.0000","5.2435","2.6450"
"316.5000","5.2687","2.6290"
"318.0000","5.2938","2.6157"
"319.5000","5.3186","2.6034"
"321.0000","5.3435","2.5928"
"322.5000","5.3683","2.5720"
"324.0000","5.3932","2.5550"
"325.5000","5.4180","2.5410"
"327.0000","5.4429","2.5322"
"328.5000","5.4679","2.5164"
"330.0000","5.4929","2.5044"
"331.5000","5.5181","2.4949"
"333.0000","5.5433","2.4887"
"334.5000","5.5685","2.4864"
"336.0000","5.5935","2.4861"
"337.5000","5.6184","2.4820"
"339.0000","5.6432","2.4753"
"340.5000","5.6682","2.4750"
"342.0000","5.6931","2.4694"
"343.5000","5.7182","2.4631"
"345.0000","5.7431","2.4539"
"346.5000","5.7682","2.4428"
"348.0000","5.7932","2.4282"
"349.5000","5.8182","2.4139"
"351.0000","5.8430","2.4024"
"352.5000","5.8680","2.3889"
"354.0000","5.8931","2.3744"
"355.5000","5.9182","2.3627"
"357.0000","5.9432","2.3474"
"358.5000","5.9683","2.3397"
"360.0000","5.9933","2.3353"
"361.5000","6.0184","2.3270"
"363.0000","6.0435","2.3166"
"364.5000","6.0685","2.3102"
"366.0000","6.0934","2.3057"
"367.5000","6.1182","2.2935"
"369.0000","6.1430","2.2812"
"370.5000","6.1678","2.2670"
"372.0000","6.1928","2.2595"
"373.5000","6.2180","2.2460"
"375.0000","6.2432","2.2283"
"376.5000","6.2685","2.2120"
"378.0000","6.2937","2.2031"
"379.5000","6.3187","2.1953"
"381.0000","6.3435","2.1877"
"382.5000","6.3684","2.1790"
"384.0000","6.3932","2.1664"
"385.5000","6.4181","2.1536"
"387.0000","6.4429","2.1415"
"388.5000","6.4679","2.1268"
"390.0000","6.4929","2.1139"
"391.5000","6.5180","2.1057"
"393.0000","6.5432","2.1028"
"394.5000","6.5683","2.0993"
"396.0000","6.5934","2.0975"
"397.5000","6.6184","2.0948"
"399.0000","6.6434","2.0889"
"400.5000","6.6682","2.0774"
"402.0000","6.6933","2.0736"
"403.5000","6.7182","2.0658"
"405.0000","6.7432","2.0605"
"406.5000","6.7682","2.0525"
"408.0000","6.7933","2.0449"
"409.5000","6.8182","2.0347"
"411.0000","6.8431","2.0241"
"412.5000","6.8679","2.0161"
"414.0000","6.8929","2.0118"
"415.5000","6.9180","2.0006"
"417.0000","6.9432","1.9916"
"418.5000","6.9683","1.9847"
"420.0000","6.9934","1.9774"
"421.5000","7.0186","1.9717"
"423.0000","7.0437","1.9639"
"424.5000","7.0686","1.9592"
"426.0000","7.0935","1.9524"
"427.5000","7.1182","1.9446"
"429.0000","7.1428","1.9317"
"430.5000","7.1679","1.9151"
"432.0000","7.1929","1.8983"
"433.5000","7.2179","1.8875"
"435.0000","7.2430","1.8802"
"436.5000","7.2683","1.8730"
"438.0000","7.2936","1.8671"
"439.5000","7.3188","1.8632"
"441.0000","7.3437","1.8568"
"442.5000","7.3684","1.8502"
"442.5090","7.3686","1.8499"