File: DestructiveTests/Tensile/FLAX TENSILE.is_qtest_Exports/FLAX TENSILE_2.csv
Time,Displacement,Force
(s),(mm),(kN)
"0.0000","0.0000","-0.0031"
"1.4000","0.0196","0.0722"
"2.8000","0.0430","0.1459"
"4.2000","0.0665","0.2037"
"5.6000","0.0901","0.2507"
"7.0000","0.1132","0.2883"
"8.4000","0.1365","0.3172"
"9.8000","0.1601","0.3412"
"11.2000","0.1831","0.3564"
"12.6000","0.2062","0.3706"
"14.0000","0.2297","0.3837"
"15.4000","0.2532","0.3900"
"16.8000","0.2765","0.4007"
"18.2000","0.2997","0.4112"
"19.6000","0.3233","0.4233"
"21.0000","0.3469","0.4360"
"22.4000","0.3698","0.4455"
"23.8000","0.3928","0.4554"
"25.2000","0.4166","0.4693"
"26.6000","0.4398","0.4801"
"28.0000","0.4630","0.4919"
"29.4000","0.4862","0.5014"
"30.8000","0.5101","0.5149"
"32.2000","0.5335","0.5272"
"33.6000","0.5565","0.5359"
"35.0000","0.5800","0.5468"
"36.4000","0.6034","0.5588"
"37.8000","0.6264","0.5693"
"39.2000","0.6495","0.5773"
"40.6000","0.6732","0.5869"
"42.0000","0.6965","0.5980"
"43.4000","0.7199","0.6107"
"44.8000","0.7431","0.6214"
"46.2000","0.7670","0.6346"
"47.6000","0.7901","0.6459"
"49.0000","0.8131","0.6567"
"50.4000","0.8364","0.6678"
"51.8000","0.8599","0.6803"
"53.2000","0.8831","0.6908"
"54.6000","0.9062","0.7013"
"56.0000","0.9299","0.7144"
"57.4000","0.9536","0.7275"
"58.8000","0.9767","0.7373"
"60.2000","0.9997","0.7470"
"61.6000","1.0235","0.7607"
"63.0000","1.0465","0.7699"
"64.4000","1.0696","0.7802"
"65.8000","1.0928","0.7899"
"67.2000","1.1165","0.8032"
"68.6000","1.1399","0.8154"
"70.0000","1.1631","0.8263"
"71.4000","1.1865","0.8370"
"72.8000","1.2105","0.8531"
"74.2000","1.2332","0.8621"
"75.6000","1.2563","0.8720"
"77.0000","1.2798","0.8858"
"78.4000","1.3032","0.8973"
"79.8000","1.3263","0.9082"
"81.2000","1.3495","0.9195"
"82.6000","1.3733","0.9329"
"84.0000","1.3969","0.9468"
"85.4000","1.4198","0.9586"
"86.8000","1.4432","0.9706"
"88.2000","1.4667","0.9847"
"89.6000","1.4897","0.9968"
"91.0000","1.5129","1.0111"
"92.4000","1.5363","1.0248"
"93.8000","1.5600","1.0398"
"95.2000","1.5832","1.0538"
"96.6000","1.6064","1.0650"
"98.0000","1.6302","1.0815"
"99.4000","1.6537","1.0968"
"100.8000","1.6764","1.1074"
"102.2000","1.6995","1.1184"
"103.6000","1.7233","1.1331"
"105.0000","1.7464","1.1444"
"106.4000","1.7696","1.1556"
"107.8000","1.7929","1.1684"
"109.2000","1.8168","1.1847"
"110.6000","1.8401","1.1975"
"112.0000","1.8630","1.2091"
"113.4000","1.8867","1.2216"
"114.8000","1.9099","1.2314"
"116.2000","1.9330","1.2419"
"117.6000","1.9561","1.2504"
"119.0000","1.9798","1.2622"
"120.4000","2.0032","1.2719"
"121.8000","2.0264","1.2825"
"123.2000","2.0497","1.2929"
"124.6000","2.0738","1.3055"
"126.0000","2.0967","1.3122"
"127.4000","2.1196","1.3186"
"128.8000","2.1431","1.3258"
"130.2000","2.1665","1.3334"
"131.6000","2.1897","1.3394"
"133.0000","2.2127","1.3427"
"134.4000","2.2365","1.3472"
"135.8000","2.2602","1.3506"
"137.2000","2.2834","1.3521"
"138.6000","2.3064","1.3510"
"140.0000","2.3302","1.3518"
"141.4000","2.3531","1.3488"
"142.8000","2.3763","1.3445"
"144.2000","2.3995","1.3364"
"145.6000","2.4232","1.3334"
"147.0000","2.4466","1.3347"
"148.4000","2.4697","1.3374"
"149.8000","2.4934","1.3445"
"151.2000","2.5170","1.3499"
"152.6000","2.5398","1.3513"
"154.0000","2.5629","1.3513"
"155.4000","2.5865","1.3505"
"156.8000","2.6098","1.3463"
"158.2000","2.6329","1.3388"
"159.6000","2.6562","1.3298"
"161.0000","2.6801","1.3259"
"162.4000","2.7036","1.3215"
"163.8000","2.7266","1.3152"
"165.2000","2.7498","1.3109"
"166.6000","2.7735","1.3065"
"168.0000","2.7964","1.2953"
"169.4000","2.8195","1.2797"
"170.8000","2.8430","1.2666"
"172.2000","2.8666","1.2539"
"173.6000","2.8899","1.2439"
"175.0000","2.9130","1.2308"
"176.4000","2.9369","1.2216"
"177.8000","2.9602","1.2122"
"179.2000","2.9831","1.1988"
"180.6000","3.0062","1.1881"
"182.0000","3.0299","1.1814"
"183.4000","3.0531","1.1676"
"184.8000","3.0762","1.1501"
"186.2000","3.0997","1.1396"
"187.6000","3.1235","1.1324"
"189.0000","3.1467","1.1223"
"190.4000","3.1697","1.1122"
"191.8000","3.1933","1.1050"
"193.2000","3.2165","1.0945"
"194.6000","3.2396","1.0832"
"196.0000","3.2628","1.0743"
"197.4000","3.2865","1.0702"
"198.8000","3.3099","1.0657"
"200.2000","3.3332","1.0609"
"201.6000","3.3565","1.0529"
"203.0000","3.3804","1.0486"
"204.4000","3.4033","1.0397"
"205.8000","3.4263","1.0286"
"207.2000","3.4497","1.0207"
"208.6000","3.4732","1.0146"
"210.0000","3.4964","1.0055"
"211.4000","3.5195","0.9988"
"212.8000","3.5433","0.9931"
"214.2000","3.5668","0.9898"
"215.6000","3.5900","0.9832"
"217.0000","3.6130","0.9767"
"218.4000","3.6368","0.9716"
"219.8000","3.6598","0.9677"
"221.2000","3.6830","0.9643"
"222.6000","3.7063","0.9607"
"224.0000","3.7300","0.9581"
"225.4000","3.7532","0.9517"
"226.8000","3.7765","0.9442"
"228.2000","3.8001","0.9394"
"229.6000","3.8236","0.9346"
"231.0000","3.8464","0.9261"
"232.4000","3.8696","0.9197"
"233.8000","3.8932","0.9157"
"235.2000","3.9165","0.9105"
"236.6000","3.9397","0.9054"
"238.0000","3.9629","0.9000"
"239.4000","3.9868","0.8973"
"240.8000","4.0102","0.8928"
"242.2000","4.0332","0.8861"
"243.6000","4.0565","0.8816"
"245.0000","4.0801","0.8809"
"246.4000","4.1029","0.8744"
"247.8000","4.1261","0.8698"
"249.2000","4.1498","0.8681"
"250.6000","4.1733","0.8643"
"252.0000","4.1966","0.8582"
"253.4000","4.2197","0.8516"
"254.8000","4.2436","0.8491"
"256.2000","4.2668","0.8455"
"257.6000","4.2896","0.8415"
"259.0000","4.3129","0.8403"
"260.4000","4.3365","0.8393"
"261.8000","4.3598","0.8378"
"263.2000","4.3829","0.8370"
"264.6000","4.4064","0.8342"
"266.0000","4.4303","0.8322"
"267.4000","4.4535","0.8286"
"268.8000","4.4764","0.8249"
"270.2000","4.5001","0.8229"
"271.6000","4.5232","0.8189"
"273.0000","4.5463","0.8137"
"274.4000","4.5694","0.8071"
"275.8000","4.5932","0.8046"
"277.2000","4.6164","0.8024"
"278.6000","4.6398","0.7997"
"280.0000","4.6631","0.7977"
"281.4000","4.6869","0.7991"
"282.8000","4.7099","0.7936"
"284.2000","4.7328","0.7882"
"285.6000","4.7564","0.7862"
"287.0000","4.7798","0.7853"
"288.4000","4.8031","0.7837"
"289.8000","4.8261","0.7788"
"291.2000","4.8500","0.7750"
"292.6000","4.8735","0.7715"
"294.0000","4.8966","0.7664"
"295.4000","4.9197","0.7613"
"296.8000","4.9434","0.7595"
"298.2000","4.9664","0.7556"
"299.6000","4.9896","0.7529"
"301.0000","5.0129","0.7502"
"302.4000","5.0366","0.7499"
"303.8000","5.0598","0.7461"
"305.2000","5.0831","0.7414"
"306.6000","5.1068","0.7382"
"308.0000","5.1303","0.7352"
"309.4000","5.1531","0.7309"
"310.8000","5.1762","0.7270"
"312.2000","5.1998","0.7253"
"313.6000","5.2231","0.7234"
"315.0000","5.2463","0.7191"
"316.4000","5.2695","0.7142"
"317.8000","5.2936","0.7152"
"319.2000","5.3169","0.7141"
"320.6000","5.3399","0.7098"
"322.0000","5.3633","0.7088"
"323.4000","5.3867","0.7072"
"324.8000","5.4097","0.7030"
"326.2000","5.4328","0.6987"
"327.6000","5.4565","0.6983"
"329.0000","5.4800","0.6958"
"330.4000","5.5032","0.6928"
"331.8000","5.5264","0.6893"
"333.2000","5.5503","0.6894"
"334.6000","5.5735","0.6862"
"336.0000","5.5963","0.6797"
"337.4000","5.6196","0.6746"
"338.8000","5.6432","0.6737"
"340.2000","5.6665","0.6710"
"341.6000","5.6895","0.6679"
"343.0000","5.7132","0.6676"
"344.4000","5.7370","0.6688"
"345.8000","5.7601","0.6667"
"347.2000","5.7830","0.6635"
"348.6000","5.8068","0.6640"
"350.0000","5.8299","0.6603"
"351.4000","5.8531","0.6567"
"352.8000","5.8760","0.6519"
"354.2000","5.9000","0.6507"
"355.6000","5.9233","0.6469"
"357.0000","5.9465","0.6405"
"358.4000","5.9700","0.6351"
"359.8000","5.9936","0.6327"
"361.2000","6.0165","0.6287"
"362.6000","6.0395","0.6251"
"364.0000","6.0631","0.6233"
"365.4000","6.0865","0.6220"
"366.8000","6.1097","0.6192"
"368.2000","6.1328","0.6133"
"369.6000","6.1567","0.6126"
"371.0000","6.1802","0.6093"
"372.4000","6.2032","0.6030"
"373.8000","6.2264","0.5979"
"375.2000","6.2500","0.5965"
"376.6000","6.2731","0.5922"
"378.0000","6.2962","0.5882"
"379.4000","6.3196","0.5859"
"380.8000","6.3433","0.5857"
"382.2000","6.3667","0.5832"
"383.6000","6.3898","0.5792"
"385.0000","6.4136","0.5794"
"386.4000","6.4369","0.5765"
"387.8000","6.4597","0.5722"
"389.2000","6.4829","0.5680"
"390.6000","6.5064","0.5653"
"392.0000","6.5298","0.5629"
"393.4000","6.5530","0.5588"
"394.8000","6.5763","0.5547"
"396.2000","6.6002","0.5548"
"397.6000","6.6235","0.5523"
"399.0000","6.6464","0.5500"
"400.4000","6.6699","0.5482"
"401.8000","6.6932","0.5453"
"403.2000","6.7163","0.5432"
"404.6000","6.7395","0.5410"
"406.0000","6.7631","0.5422"
"407.4000","6.7866","0.5412"
"408.8000","6.8098","0.5395"
"410.2000","6.8331","0.5381"
"410.4690","6.8376","0.5387"