File: DMA/PASA5050 - 1Hz(1).csv
Angular frequency,Step time,Temperature,Oscillation strain,Oscillation stress,Tan(delta),Storage modulus,Loss modulus
rad/s,s,Celsius,%,MPa,,MPa,MPa
6.28319,880.004,40.07,0.0915892,1.58650,0.0335911,1731.21,58.1534
6.28319,898.004,40.34,0.0915774,1.58587,0.0335518,1730.75,58.0697
6.28319,916.004,40.75,0.0915807,1.58538,0.0335827,1730.16,58.1034
6.28319,934.004,41.25,0.0915851,1.58474,0.0336215,1729.37,58.1441
6.28319,952.004,41.81,0.0915879,1.58398,0.0336058,1728.49,58.0871
6.28319,970.004,42.43,0.0915942,1.58311,0.0336334,1727.42,58.0991
6.28319,988.004,43.06,0.0915960,1.58210,0.0336610,1726.28,58.1082
6.28319,1006.00,43.69,0.0916010,1.58106,0.0336822,1725.05,58.1036
6.28319,1024.00,44.44,0.0915945,1.57958,0.0336676,1723.56,58.0280
6.28319,1042.00,45.19,0.0915943,1.57802,0.0336941,1721.86,58.0165
6.28319,1060.00,45.96,0.0915980,1.57646,0.0337584,1720.08,58.0671
6.28319,1078.00,46.75,0.0915981,1.57466,0.0338350,1718.11,58.1323
6.28319,1096.00,47.60,0.0915886,1.57265,0.0339208,1716.09,58.2111
6.28319,1114.00,48.49,0.0915918,1.57081,0.0340328,1714.02,58.3329
6.28319,1132.00,49.34,0.0915989,1.56895,0.0340834,1711.86,58.3458
6.28319,1150.00,49.95,0.0915991,1.56681,0.0341786,1709.52,58.4289
6.28319,1168.00,50.80,0.0916015,1.56433,0.0342881,1706.76,58.5213
6.28319,1186.00,51.71,0.0916060,1.56182,0.0343278,1703.92,58.4920
6.28319,1204.00,52.76,0.0916050,1.55923,0.0343616,1701.12,58.4531
6.28319,1222.00,53.56,0.0915996,1.55615,0.0344082,1697.86,58.4201
6.28319,1240.00,54.59,0.0916029,1.55309,0.0345169,1694.45,58.4873
6.28319,1258.00,55.43,0.0916025,1.54996,0.0346553,1691.04,58.6034
6.28319,1276.00,56.31,0.0916056,1.54657,0.0347722,1687.27,58.6701
6.28319,1294.00,57.23,0.0916083,1.54302,0.0349136,1683.34,58.7716
6.28319,1312.00,57.76,0.0916199,1.53907,0.0349582,1678.82,58.6885
6.28319,1330.00,59.09,0.0916030,1.53421,0.0351435,1673.82,58.8238
6.28319,1348.00,60.19,0.0915737,1.52901,0.0353181,1668.66,58.9340
6.28319,1366.00,60.30,0.0915996,1.52419,0.0356562,1662.91,59.2931
6.28319,1384.00,61.68,0.0916274,1.51912,0.0360346,1656.85,59.7040
6.28319,1402.00,62.91,0.0916261,1.51339,0.0362747,1650.62,59.8756
6.28319,1420.00,63.66,0.0916818,1.50787,0.0365784,1643.58,60.1197
6.28319,1438.00,64.54,0.0916269,1.50100,0.0367256,1637.06,60.1222
6.28319,1456.00,65.39,0.0915941,1.49316,0.0372229,1629.06,60.6385
6.28319,1474.00,66.11,0.0915738,1.48438,0.0377317,1619.81,61.1180
6.28319,1492.00,66.87,0.0915888,1.47529,0.0384836,1609.58,61.9425
6.28319,1510.00,67.78,0.0915649,1.46439,0.0394040,1598.05,62.9694
6.28319,1528.00,68.97,0.0915743,1.45360,0.0402080,1586.06,63.7724
6.28319,1546.00,70.14,0.0916180,1.44221,0.0413720,1572.82,65.0705
6.28319,1564.00,71.01,0.0916743,1.42999,0.0426271,1558.45,66.4321
6.28319,1582.00,71.69,0.0916693,1.41591,0.0444756,1543.06,68.6285
6.28319,1600.00,72.59,0.0916409,1.40091,0.0466305,1527.03,71.2062
6.28319,1618.00,73.78,0.0916312,1.38530,0.0491947,1510.00,74.2838
6.28319,1636.00,74.88,0.0916262,1.36932,0.0521556,1492.44,77.8390
6.28319,1654.00,75.66,0.0916361,1.35272,0.0555064,1473.91,81.8116
6.28319,1672.00,76.32,0.0916776,1.33627,0.0591444,1455.03,86.0571
6.28319,1690.00,77.11,0.0916846,1.31804,0.0633994,1434.70,90.9590
6.28319,1708.00,78.03,0.0916627,1.29835,0.0681565,1413.16,96.3161
6.28319,1726.00,79.02,0.0916449,1.27714,0.0735732,1389.82,102.253
6.28319,1744.00,79.98,0.0916527,1.25454,0.0798888,1364.45,109.004
6.28319,1762.00,80.89,0.0916834,1.22997,0.0870436,1336.49,116.333
6.28319,1780.00,81.76,0.0916919,1.20219,0.0954225,1305.19,124.545
6.28319,1798.00,82.60,0.0917017,1.17173,0.105135,1270.75,133.601
6.28319,1816.00,83.42,0.0917197,1.13771,0.116512,1232.09,143.553
6.28319,1834.00,84.36,0.0917344,1.10082,0.129341,1190.09,153.927
6.28319,1852.00,86.64,0.0917223,1.06012,0.143816,1144.02,164.528
6.28319,1870.00,87.33,0.0917123,1.01647,0.160039,1094.40,175.146
6.28319,1888.00,87.09,0.0918611,0.970369,0.178447,1039.92,185.570
6.28319,1906.00,87.62,0.0917778,0.916059,0.200169,978.712,195.908
6.28319,1924.00,88.42,0.0918142,0.858805,0.224736,912.610,205.096
6.28319,1942.00,89.31,0.0918135,0.797178,0.252397,841.857,212.483
6.28319,1960.00,90.23,0.0918080,0.731830,0.283301,766.948,217.277
6.28319,1978.00,91.16,0.0917965,0.663721,0.317594,689.116,218.859
6.28319,1996.00,92.08,0.0917737,0.594358,0.355116,610.295,216.726
6.28319,2014.00,93.00,0.0917446,0.525562,0.395202,532.758,210.547
6.28319,2032.00,93.94,0.0917105,0.459624,0.436699,459.284,200.569
6.28319,2050.00,94.90,0.0916839,0.398525,0.478039,392.168,187.472
6.28319,2068.00,95.85,0.0916627,0.343394,0.518418,332.591,172.421
6.28319,2086.00,96.95,0.0916170,0.292655,0.558751,278.855,155.811
6.28319,2104.00,97.71,0.0915983,0.246273,0.599457,230.602,138.236
6.28319,2122.00,98.49,0.0916067,0.203616,0.641649,187.073,120.035
6.28319,2140.00,99.31,0.0915835,0.167973,0.681126,151.587,103.250
6.28319,2158.00,100.45,0.0915835,0.138076,0.717111,122.519,87.8596
6.28319,2176.00,101.57,0.0915660,0.112769,0.750018,98.5242,73.8950
6.28319,2194.00,104.27,0.0915701,0.0923611,0.778135,79.6033,61.9421
6.28319,2212.00,104.80,0.0915993,0.0789307,0.791161,67.5775,53.4647
6.28319,2230.00,105.20,0.0915710,0.0666197,0.792791,57.0097,45.1968
6.28319,2248.00,105.24,0.0915854,0.0551582,0.784827,47.3772,37.1829
6.28319,2266.00,106.79,0.0915909,0.0476476,0.766199,41.2945,31.6398
6.28319,2284.00,107.49,0.0915663,0.0427801,0.745434,37.4582,27.9226
6.28319,2302.00,107.62,0.0915708,0.0384205,0.715997,34.1143,24.4257
6.28319,2320.00,107.80,0.0916087,0.0341215,0.676243,30.8543,20.8650
6.28319,2338.00,108.63,0.0916006,0.0304015,0.629096,28.0925,17.6729
6.28319,2356.00,110.50,0.0915892,0.0273200,0.578095,25.8242,14.9289
6.28319,2374.00,110.55,0.0915750,0.0247265,0.524772,23.9092,12.5469
6.28319,2392.00,112.25,0.0915887,0.0226597,0.473323,22.3623,10.5846
6.28319,2410.00,113.34,0.0915938,0.0209822,0.425953,21.0756,8.97720
6.28319,2428.00,114.11,0.0915988,0.0195733,0.380271,19.9732,7.59521
6.28319,2446.00,114.84,0.0915814,0.0183425,0.335063,18.9910,6.36318
6.28319,2464.00,115.14,0.0915749,0.0174170,0.295808,18.2382,5.39499
6.28319,2482.00,115.82,0.0916040,0.0166316,0.264793,17.5511,4.64741
6.28319,2500.00,117.78,0.0915834,0.0160109,0.238015,17.0072,4.04797
6.28319,2518.00,118.63,0.0915892,0.0154764,0.213161,16.5263,3.52276
6.28319,2536.00,119.43,0.0915883,0.0149979,0.188938,16.0907,3.04014
6.28319,2554.00,119.29,0.0915819,0.0146172,0.168256,15.7396,2.64828
6.28319,2572.00,121.03,0.0916011,0.0142874,0.150284,15.4242,2.31801
6.28319,2590.00,122.51,0.0915861,0.0140188,0.135041,15.1690,2.04843
6.28319,2608.00,123.08,0.0915881,0.0137699,0.120125,14.9272,1.79314
6.28319,2626.00,123.02,0.0915897,0.0135712,0.106463,14.7342,1.56864
6.28319,2644.00,125.18,0.0915975,0.0134169,0.0952556,14.5816,1.38898
6.28319,2662.00,126.05,0.0915840,0.0133011,0.0852765,14.4708,1.23402
6.28319,2680.00,125.91,0.0915888,0.0131856,0.0758505,14.3552,1.08885
6.28319,2698.00,127.62,0.0916021,0.0131088,0.0677447,14.2779,0.967252
6.28319,2716.00,128.99,0.0915879,0.0130477,0.0611198,14.2195,0.869096
6.28319,2734.00,129.16,0.0915923,0.0129920,0.0546450,14.1635,0.773964
6.28319,2752.00,129.88,0.0915870,0.0129673,0.0497254,14.1410,0.703167
6.28319,2770.00,131.88,0.0915788,0.0129530,0.0452857,14.1296,0.639871
6.28319,2788.00,132.32,0.0915998,0.0129158,0.0411172,14.0884,0.579273
6.28319,2806.00,132.21,0.0915847,0.0129215,0.0378538,14.0987,0.533687
6.28319,2824.00,134.53,0.0915977,0.0129092,0.0350622,14.0848,0.493843
6.28319,2842.00,135.33,0.0915987,0.0128926,0.0331190,14.0673,0.465895
6.28319,2860.00,135.26,0.0915770,0.0129232,0.0310749,14.1051,0.438314
6.28319,2878.00,136.43,0.0915987,0.0129211,0.0289655,14.1003,0.408421
6.28319,2896.00,138.35,0.0915778,0.0129262,0.0278722,14.1095,0.393262
6.28319,2914.00,138.91,0.0916012,0.0129558,0.0267905,14.1386,0.378781
6.28319,2932.00,138.90,0.0915791,0.0129688,0.0258320,14.1566,0.365694
6.28319,2950.00,139.73,0.0916088,0.0129645,0.0248285,14.1476,0.351264
6.28319,2968.00,141.81,0.0915848,0.0129879,0.0245536,14.1770,0.348095
6.28319,2986.00,142.70,0.0915923,0.0130066,0.0239784,14.1964,0.340408
6.28319,3004.00,143.33,0.0915956,0.0130340,0.0232464,14.2260,0.330704
6.28319,3022.00,143.66,0.0915649,0.0130304,0.0233963,14.2269,0.332856
6.28319,3040.00,143.95,0.0915902,0.0130562,0.0229080,14.2513,0.326469
6.28319,3058.00,145.04,0.0916204,0.0130905,0.0221096,14.2842,0.315820
6.28319,3076.00,146.20,0.0915731,0.0131092,0.0224854,14.3120,0.321810
6.28319,3094.00,147.79,0.0915748,0.0131127,0.0221785,14.3156,0.317498
6.28319,3112.00,148.47,0.0916225,0.0131238,0.0220238,14.3203,0.315389
6.28319,3130.00,148.88,0.0916121,0.0131370,0.0215850,14.3365,0.309453