File: DMA/Sn_Pristine_AllData.xlsx - 100 Hz.csv
Angular frequency,Step time,Temperature,Oscillation strain,Oscillation stress,Tan(delta),Storage modulus,Loss modulus
rad/s,s,Celsius,%,MPa,,MPa,MPa
628.318,846.137,40.06,0.0102356,0.190873,0.0107846,1864.7,20.11
628.318,861.137,40.26,0.0102363,0.190884,0.0106871,1864.67,19.928
628.318,876.137,40.58,0.0102401,0.190914,0.0106488,1864.27,19.8522
628.318,891.137,40.96,0.0102451,0.19096,0.0108132,1863.8,20.1536
628.318,906.137,41.39,0.0102587,0.191062,0.0107231,1862.34,19.9701
628.318,921.137,41.87,0.0102696,0.191161,0.0107713,1861.33,20.049
628.318,936.137,42.37,0.0102846,0.191272,0.0106685,1859.68,19.84
628.318,951.137,42.87,0.0102965,0.191374,0.010681,1858.52,19.8508
628.318,966.137,43.43,0.0103068,0.191462,0.0108151,1857.52,20.0892
628.318,981.137,44.05,0.0103145,0.191525,0.0107974,1856.74,20.048
628.318,996.137,44.69,0.0103266,0.191621,0.0107584,1855.49,19.9621
628.318,1011.14,45.32,0.010352,0.191818,0.0108526,1852.84,20.1081
628.318,1026.14,45.96,0.0103783,0.192033,0.0108082,1850.22,19.9976
628.318,1041.14,46.59,0.0104043,0.192245,0.0110051,1847.63,20.3333
628.318,1056.14,47.24,0.0104223,0.192387,0.0110309,1845.8,20.3608
628.318,1071.14,47.92,0.0104298,0.192446,0.0108766,1845.06,20.0679
628.318,1086.14,48.72,0.0104465,0.192583,0.0111154,1843.41,20.4903
628.318,1101.14,49.4,0.0104735,0.192795,0.0110565,1840.68,20.3515
628.318,1116.14,49.96,0.0104898,0.192932,0.0111403,1839.11,20.4882
628.318,1131.14,50.56,0.0104916,0.19294,0.0110221,1838.88,20.2683
628.318,1146.14,51.52,0.0104831,0.192884,0.0111579,1839.84,20.5287
628.318,1161.14,52.24,0.010497,0.192985,0.0111902,1838.36,20.5716
628.318,1176.14,52.9,0.0105115,0.193098,0.0110664,1836.9,20.3278
628.318,1191.14,53.71,0.0105132,0.193119,0.0112404,1836.8,20.6463
628.318,1206.14,54.5,0.0105307,0.193247,0.0113537,1834.97,20.8337
628.318,1221.14,55.22,0.0105777,0.193624,0.011182,1830.37,20.4672
628.318,1236.14,55.98,0.0106142,0.193923,0.0113882,1826.89,20.805
628.318,1251.14,56.74,0.0106458,0.19417,0.0115034,1823.8,20.9799
628.318,1266.14,57.49,0.0107043,0.194634,0.0115214,1818.16,20.9478
628.318,1281.14,58.21,0.0107372,0.194888,0.0115221,1814.95,20.912
628.318,1296.14,58.91,0.0107659,0.195113,0.0115194,1812.21,20.8756
628.318,1311.14,59.54,0.0107998,0.195386,0.011581,1809.05,20.9505
628.318,1326.14,60.33,0.0107914,0.195317,0.0117122,1809.82,21.197
628.318,1341.14,61.24,0.01081,0.195465,0.0119221,1808.06,21.5559
628.318,1356.14,62.12,0.0108224,0.195556,0.0120052,1806.82,21.6912
628.318,1371.14,62.52,0.0108947,0.196123,0.0120481,1800.03,21.687
628.318,1386.14,62.94,0.010951,0.196557,0.0120382,1794.75,21.6057
628.318,1401.14,63.78,0.0110137,0.197058,0.0123502,1789.07,22.0954
628.318,1416.14,65.23,0.0110641,0.197447,0.0123222,1784.44,21.9883
628.318,1431.14,65.75,0.0110593,0.197417,0.0124895,1784.94,22.293
628.318,1446.14,66.41,0.0110766,0.197541,0.0127055,1783.26,22.6572
628.318,1461.14,67.84,0.0111251,0.197915,0.0128813,1778.85,22.9139
628.318,1476.14,67.44,0.0111984,0.198477,0.0128327,1772.23,22.7425
628.318,1491.14,69,0.0112701,0.199036,0.0131793,1765.9,23.2734
628.318,1506.14,69.76,0.0113223,0.199435,0.0132927,1761.28,23.4122
628.318,1521.14,69.88,0.0113199,0.199421,0.0133148,1761.53,23.4543
628.318,1536.14,71.26,0.0113359,0.199539,0.0135457,1760.08,23.8414
628.318,1551.14,71.99,0.0114248,0.200214,0.0137134,1752.29,24.0298
628.318,1566.14,72.32,0.0115083,0.200855,0.013889,1745.15,24.2383
628.318,1581.14,73.17,0.0115694,0.201318,0.0141244,1739.92,24.5754
628.318,1596.14,73.93,0.0115778,0.201379,0.0143618,1739.17,24.9776
628.318,1611.14,74.38,0.0116214,0.201696,0.0146426,1735.38,25.4105
628.318,1626.14,75.17,0.0117405,0.2026,0.0148797,1725.45,25.6742
628.318,1641.14,76.14,0.0118371,0.203328,0.0151467,1717.52,26.0148
628.318,1656.14,76.61,0.0118608,0.203498,0.0156724,1715.51,26.8862
628.318,1671.14,77.6,0.0119905,0.204457,0.0159615,1704.94,27.2134
628.318,1686.14,78.59,0.0121239,0.205442,0.0166666,1694.29,28.238
628.318,1701.14,78.99,0.0121688,0.205764,0.0171617,1690.66,29.0146
628.318,1716.14,80.13,0.0123323,0.20696,0.0179574,1677.93,30.1313
628.318,1731.14,80.92,0.0124668,0.207943,0.0186607,1667.68,31.1202
628.318,1746.14,81.37,0.0125671,0.208646,0.0196999,1659.93,32.7005
628.318,1761.14,82.64,0.0127733,0.210128,0.0206863,1644.7,34.0228
628.318,1776.14,83.01,0.0128845,0.210909,0.0220962,1636.52,36.161
628.318,1791.14,84,0.013117,0.212543,0.0235793,1619.91,38.1964
628.318,1806.14,84.85,0.0132986,0.21382,0.0252438,1607.33,40.575
628.318,1821.14,85.39,0.0135652,0.215647,0.0274603,1589.11,43.6375
628.318,1836.14,86.44,0.0138012,0.217257,0.0298668,1573.48,46.9948
628.318,1851.14,86.98,0.0141254,0.219418,0.032753,1552.52,50.8498
628.318,1866.14,87.81,0.0144232,0.221387,0.0362536,1533.93,55.6105
628.318,1881.14,88.74,0.0148439,0.224131,0.040004,1508.71,60.3545
628.318,1896.14,89.17,0.0152188,0.226528,0.0444982,1487.01,66.169
628.318,1911.14,91.56,0.0156926,0.229524,0.0494978,1460.83,72.3081
628.318,1926.14,92.31,0.0160495,0.231731,0.0532856,1441.8,76.8273
628.318,1941.14,91.66,0.0165382,0.234701,0.0590275,1416.68,83.6229
628.318,1956.14,92.17,0.0172035,0.238671,0.066461,1384.28,92.0007
628.318,1971.14,92.35,0.0179522,0.243022,0.0749082,1349.94,101.121
628.318,1986.14,93.24,0.018796,0.247785,0.0844735,1313.61,110.965
628.318,2001.14,93.81,0.0197577,0.25306,0.0949981,1275.07,121.13
628.318,2016.14,94.67,0.0208457,0.258834,0.106987,1234.62,132.088
628.318,2031.14,95.37,0.0221569,0.265542,0.120817,1189.81,143.749
628.318,2046.14,96.14,0.0236544,0.272916,0.136178,1143.21,155.68
628.318,2061.14,96.99,0.0254557,0.281393,0.153606,1092.61,167.831
628.318,2076.14,97.84,0.0276212,0.29109,0.17363,1038.33,180.285
628.318,2091.14,98.65,0.0301897,0.301975,0.195945,981.593,192.338
628.318,2106.19,99.44,0.0332887,0.314332,0.221003,922.013,203.768
628.318,2121.33,100.21,0.0370729,0.328475,0.249174,859.735,214.223
628.318,2136.33,100.97,0.0417419,0.344657,0.280093,795.088,222.698
628.318,2151.33,101.73,0.0475813,0.363324,0.314535,728.405,229.109
628.318,2166.33,102.47,0.0549784,0.384872,0.352964,660.128,233.001
628.318,2181.33,103.25,0.0646,0.410124,0.396118,590.245,233.807
628.318,2196.33,104.1,0.0775338,0.44028,0.445297,518.749,230.997
628.318,2211.33,104.87,0.0889652,0.445559,0.500608,447.841,224.193
628.318,2226.33,105.52,0.0889588,0.39281,0.555743,385.966,214.498
628.318,2241.33,106.3,0.0889606,0.346328,0.610622,332.259,202.885
628.318,2256.33,107.04,0.0889561,0.305043,0.665268,285.506,189.938
628.318,2271.33,107.81,0.088952,0.268418,0.7198,244.909,176.286
628.318,2286.33,108.61,0.088943,0.236245,0.772993,210.15,162.444
628.318,2301.33,109.34,0.0889363,0.207783,0.825253,180.194,148.706
628.318,2316.33,110.12,0.0889282,0.182565,0.876015,154.423,135.276
628.318,2331.33,110.83,0.0889206,0.160275,0.923458,132.42,122.284
628.318,2346.33,111.6,0.0889164,0.14071,0.966517,113.788,109.978
628.318,2361.33,112.44,0.088906,0.123531,1.00198,98.1518,98.3462
628.318,2376.33,113.16,0.0889032,0.108443,1.02781,85.0612,87.4271
628.318,2391.33,113.84,0.0888977,0.0953238,1.04207,74.2442,77.3677
628.318,2406.33,114.65,0.0888882,0.0837797,1.04546,65.1495,68.1113
628.318,2421.33,115.38,0.0888849,0.0736349,1.03835,57.4667,59.6703
628.318,2436.33,116.13,0.0888762,0.0649418,1.02179,51.1083,52.2221
628.318,2451.33,116.84,0.0888729,0.0573891,0.996597,45.7387,45.5831
628.318,2466.33,117.63,0.0888655,0.050911,0.963667,41.2526,39.7538
628.318,2481.33,118.37,0.088858,0.0454374,0.925094,37.5363,34.7246
628.318,2496.33,119.1,0.0888546,0.040793,0.881617,34.4375,30.3607
628.318,2511.33,119.84,0.0888515,0.0368501,0.835047,31.8342,26.5831
628.318,2526.33,120.56,0.0888479,0.0334906,0.787903,29.6082,23.3284
628.318,2541.33,121.34,0.0888449,0.0306389,0.738706,27.7383,20.4905
628.318,2556.33,122.1,0.0888415,0.0282523,0.691277,26.159,18.0831
628.318,2571.33,122.84,0.0888386,0.026226,0.644101,24.8184,15.9855
628.318,2586.33,123.61,0.0888359,0.024507,0.600248,23.6529,14.1976
628.318,2601.33,124.38,0.0888344,0.0230438,0.557905,22.6532,12.6383
628.318,2616.33,125.13,0.0888325,0.021786,0.518266,21.7743,11.2849
628.318,2631.33,125.87,0.0888316,0.0207036,0.48107,21.0026,10.1037
628.318,2646.33,126.59,0.0888305,0.0197723,0.446292,20.326,9.07136
628.318,2661.33,127.33,0.0888299,0.0189626,0.413548,19.7268,8.15799
628.318,2676.33,128.08,0.0888287,0.0182752,0.382951,19.2129,7.35761
628.318,2691.33,128.94,0.0888269,0.0176432,0.354331,18.7219,6.63375
628.318,2706.33,130.35,0.0888265,0.0171361,0.329421,18.3231,6.03603
628.318,2721.33,132.8,0.0888242,0.016753,0.31036,18.0132,5.5906
628.318,2736.33,132.94,0.0888259,0.0164422,0.295242,17.753,5.24144
628.318,2751.33,133.77,0.0888258,0.0161592,0.279217,17.5218,4.89238
628.318,2766.33,133.35,0.0888254,0.0158975,0.265876,17.2966,4.59874
628.318,2781.33,134.09,0.0888243,0.0157084,0.255208,17.1355,4.37313
628.318,2796.33,134.88,0.0888246,0.0155333,0.245434,16.9835,4.16833
628.318,2811.33,135.71,0.0888236,0.0153674,0.234803,16.8429,3.95477
628.318,2826.33,136.2,0.0888238,0.0152351,0.226637,16.7278,3.79114
628.318,2841.33,136.67,0.0888232,0.0150919,0.21774,16.6019,3.6149
628.318,2856.33,137.16,0.0888237,0.0149714,0.209657,16.4966,3.45862
628.318,2871.33,137.68,0.0888234,0.0148504,0.200361,16.3932,3.28457
628.318,2886.33,138.11,0.0888244,0.0147258,0.190415,16.2859,3.10109
628.318,2901.33,138.59,0.0888233,0.0146048,0.179109,16.185,2.89889
628.318,2916.33,139.32,0.0888242,0.0144948,0.170628,16.086,2.74472
628.318,2931.33,140.1,0.0888231,0.0144041,0.159897,16.0132,2.56045
628.318,2946.33,140.48,0.0888232,0.0143176,0.149987,15.9409,2.39094
628.318,2961.33,140.35,0.0888238,0.0142309,0.141518,15.8635,2.24496
628.318,2976.33,142.33,0.0888237,0.0141637,0.13283,15.807,2.09965
628.318,2991.33,143.43,0.0888233,0.0140998,0.124857,15.7517,1.96671
628.318,3006.33,144.28,0.0888233,0.0140386,0.117119,15.6977,1.8385
628.318,3021.33,145.12,0.0888228,0.0139989,0.109175,15.6674,1.71049
628.318,3036.33,145.96,0.0888223,0.0139658,0.101754,15.6425,1.59168
628.318,3051.33,146.58,0.088823,0.0139227,0.0957508,15.6033,1.49403
628.318,3066.33,147.11,0.0888225,0.0138915,0.0895087,15.5773,1.3943
628.318,3081.33,147.61,0.0888228,0.0138856,0.0836837,15.5785,1.30367
628.318,3093.33,148.34,0.0888223,0.0138705,0.0798397,15.5665,1.24282