File: DMA/Sn_Pristine_AllData.xlsx - 10 Hz.csv
Angular frequency,Step time,Temperature,Oscillation strain,Oscillation stress,Tan(delta),Storage modulus,Loss modulus
rad/s,s,Celsius,%,MPa,,MPa,MPa
62.8318,879.848,40.05,0.0191369,0.341814,0.0100546,1786.07,17.9582
62.8318,894.848,40.26,0.019141,0.341843,0.0100565,1785.83,17.9592
62.8318,909.848,40.58,0.0191478,0.341892,0.0100593,1785.45,17.9604
62.8318,924.848,40.97,0.0191583,0.341969,0.01008,1784.88,17.9916
62.8318,939.848,41.4,0.0191726,0.342071,0.0100552,1784.08,17.9393
62.8318,954.848,41.88,0.0191896,0.342199,0.0100543,1783.16,17.9284
62.8318,969.848,42.39,0.0192085,0.342342,0.0100268,1782.16,17.8693
62.8318,984.848,42.91,0.0192268,0.342479,0.0100205,1781.17,17.8482
62.8318,999.848,43.44,0.0192442,0.342609,0.0100186,1780.23,17.8355
62.8318,1014.85,44.05,0.0192605,0.342733,0.0100418,1779.37,17.8681
62.8318,1029.85,44.68,0.0192792,0.342874,0.0100571,1778.38,17.8854
62.8318,1044.85,45.31,0.0193022,0.343041,0.0100608,1777.13,17.8794
62.8318,1059.85,45.95,0.0193305,0.343254,0.010098,1775.62,17.9302
62.8318,1074.85,46.58,0.0193592,0.343471,0.0101228,1774.11,17.959
62.8318,1089.85,47.24,0.0193857,0.34367,0.0101548,1772.71,18.0016
62.8318,1104.85,47.93,0.0194136,0.343879,0.0101805,1771.24,18.0321
62.8318,1119.85,48.74,0.0194471,0.344134,0.010234,1769.49,18.109
62.8318,1134.85,49.43,0.0194825,0.344398,0.0102744,1767.64,18.1613
62.8318,1149.85,49.98,0.019516,0.34465,0.0102978,1765.89,18.1848
62.8318,1164.85,50.56,0.019552,0.344912,0.0103447,1763.98,18.2479
62.8318,1179.85,51.51,0.0195897,0.345202,0.0103789,1762.07,18.2882
62.8318,1194.85,52.21,0.0196284,0.34549,0.0104302,1760.06,18.3577
62.8318,1209.85,52.88,0.0196724,0.345811,0.0104846,1757.75,18.4293
62.8318,1224.85,53.7,0.019726,0.346205,0.0105207,1754.98,18.4636
62.8318,1239.85,54.47,0.0197825,0.346627,0.0105736,1752.09,18.5259
62.8318,1254.85,55.18,0.019831,0.346996,0.0106622,1749.66,18.6554
62.8318,1269.85,55.96,0.0198784,0.347342,0.0106932,1747.23,18.6836
62.8318,1284.85,56.72,0.0199286,0.347719,0.0107703,1744.72,18.7912
62.8318,1299.85,57.47,0.0199812,0.348109,0.0108777,1742.08,18.9499
62.8318,1314.85,58.21,0.0200367,0.348514,0.0109177,1739.28,18.989
62.8318,1329.85,58.96,0.0200964,0.34895,0.0110032,1736.28,19.1045
62.8318,1344.85,59.69,0.0201545,0.34939,0.0110971,1733.45,19.2363
62.8318,1359.85,60.42,0.0202212,0.349867,0.011236,1730.09,19.4393
62.8318,1374.85,60.75,0.0203081,0.350498,0.0112972,1725.8,19.4966
62.8318,1389.85,61.52,0.020393,0.351103,0.0112781,1721.58,19.4161
62.8318,1404.85,62.22,0.0204697,0.351655,0.0112084,1717.82,19.2541
62.8318,1419.85,63.18,0.0205534,0.352305,0.011482,1713.98,19.68
62.8318,1434.85,64.07,0.0206259,0.352852,0.0119303,1710.6,20.4079
62.8318,1449.85,65.25,0.0207034,0.353417,0.0121463,1706.92,20.7327
62.8318,1464.85,65.47,0.0208177,0.354215,0.0122242,1701.39,20.798
62.8318,1479.85,66.43,0.0209353,0.355075,0.0122622,1695.93,20.7958
62.8318,1494.85,67.81,0.021015,0.355679,0.0126466,1692.36,21.4026
62.8318,1509.85,68.48,0.021115,0.35639,0.0129693,1687.71,21.8883
62.8318,1524.85,68.08,0.0212114,0.357042,0.01304,1683.11,21.9478
62.8318,1539.85,70.06,0.0213201,0.35782,0.0131729,1678.17,22.1064
62.8318,1554.85,69.9,0.0214525,0.358734,0.0132735,1672.07,22.1943
62.8318,1569.85,71.38,0.0215602,0.359577,0.0139618,1667.62,23.283
62.8318,1584.85,72.26,0.0216826,0.360456,0.0139307,1662.26,23.1565
62.8318,1599.85,72.77,0.0217982,0.361227,0.0141089,1656.97,23.3781
62.8318,1614.85,72.78,0.0219299,0.362132,0.0147631,1651.14,24.3759
62.8318,1629.85,74.06,0.0220893,0.363338,0.0154599,1644.66,25.4263
62.8318,1644.85,75.51,0.0222171,0.364229,0.0156814,1639.21,25.7052
62.8318,1659.85,75.97,0.0223462,0.365053,0.015706,1633.43,25.6547
62.8318,1674.85,76.65,0.022509,0.366167,0.0163803,1626.54,26.6432
62.8318,1689.85,77.78,0.0227031,0.367558,0.0170099,1618.75,27.5347
62.8318,1704.85,78.21,0.0228564,0.368657,0.0175861,1612.68,28.3607
62.8318,1719.85,78.26,0.0230392,0.369863,0.0178835,1605.11,28.705
62.8318,1734.85,78.82,0.0232409,0.371288,0.0194007,1597.26,30.988
62.8318,1749.85,80.59,0.0234299,0.372643,0.0201719,1590.13,32.076
62.8318,1764.85,81.04,0.0236154,0.373741,0.0202746,1582.29,32.0802
62.8318,1779.85,81.27,0.0238983,0.37573,0.0217966,1571.83,34.2606
62.8318,1794.85,81.61,0.0241537,0.377498,0.023197,1562.48,36.245
62.8318,1809.85,82.37,0.0244502,0.379363,0.0244743,1551.11,37.9622
62.8318,1824.85,83.37,0.0248891,0.382284,0.0263654,1535.41,40.4818
62.8318,1839.85,84.15,0.025302,0.385055,0.0291206,1521.19,44.298
62.8318,1854.85,84.6,0.0258991,0.388928,0.0325485,1500.91,48.8525
62.8318,1869.85,85.71,0.0265171,0.392824,0.0364513,1480.42,53.9631
62.8318,1884.85,86.42,0.0273448,0.398182,0.0416659,1454.89,60.6194
62.8318,1899.85,87.15,0.0282363,0.403695,0.0477557,1428.07,68.1986
62.8318,2070.35,96.62,0.0666733,0.589737,0.236993,860.678,203.975
62.8318,2119.35,99.96,0.0909112,0.616288,0.340993,641.623,218.789
62.8318,2134.35,100.01,0.0911419,0.562161,0.376904,577.163,217.535
62.8318,2149.35,100.06,0.0909811,0.508849,0.413292,516.886,213.625
62.8318,2164.35,100.61,0.091034,0.458754,0.451812,459.239,207.49
62.8318,2179.35,101.18,0.0910277,0.409586,0.493491,403.499,199.123
62.8318,2194.35,103.62,0.0909505,0.365683,0.534189,354.639,189.445
62.8318,2209.35,102.96,0.0912331,0.323849,0.578188,307.301,177.677
62.8318,2224.35,103.57,0.0910523,0.283819,0.624465,264.392,165.104
62.8318,2239.35,104.13,0.0910159,0.247483,0.671381,225.752,151.565
62.8318,2254.35,104.85,0.0909352,0.214207,0.719061,191.25,137.521
62.8318,2269.35,105.56,0.0907944,0.184078,0.766422,160.916,123.33
62.8318,2284.35,106.31,0.0906879,0.157246,0.812158,134.595,109.313
62.8318,2299.35,107.04,0.090565,0.13342,0.854195,112.016,95.6836
62.8318,2314.35,107.81,0.0904436,0.112573,0.889942,92.9795,82.7463
62.8318,2329.35,108.71,0.0903178,0.0946319,0.915676,77.2747,70.7585
62.8318,2344.35,109.62,0.0901937,0.0795928,0.927934,64.6871,60.0254
62.8318,2359.35,110.42,0.090111,0.0669917,0.925118,54.5723,50.4858
62.8318,2374.35,111.07,0.0900519,0.0566718,0.905892,46.6403,42.2511
62.8318,2389.35,111.83,0.0900185,0.0481889,0.871294,40.3612,35.1664
62.8318,2404.35,112.63,0.0900003,0.0413898,0.824405,35.4847,29.2538
62.8318,2419.35,113.4,0.0899885,0.0359241,0.767935,31.6619,24.3143
62.8318,2434.35,114.3,0.0899843,0.0315868,0.707269,28.659,20.2696
62.8318,2449.35,115.11,0.0899849,0.0281918,0.646153,26.3141,17.003
62.8318,2464.35,115.81,0.0899857,0.0254991,0.586726,24.4406,14.34
62.8318,2479.35,116.63,0.089988,0.0233574,0.531093,22.9238,12.1747
62.8318,2494.35,117.44,0.0899879,0.021622,0.478978,21.6701,10.3795
62.8318,2509.35,118.14,0.0899911,0.0202356,0.432818,20.6363,8.93175
62.8318,2524.35,118.82,0.089994,0.0190949,0.390757,19.7627,7.72244
62.8318,2539.35,119.73,0.0899937,0.0180986,0.34974,18.9835,6.63928
62.8318,2554.35,121.68,0.0899977,0.01736,0.318399,18.3802,5.85224
62.8318,2569.35,123.36,0.0900007,0.0168507,0.295444,17.9556,5.30486
62.8318,2584.35,122.69,0.0900013,0.0164829,0.280169,17.635,4.94079
62.8318,2599.35,124.46,0.0900015,0.0160497,0.258782,17.264,4.46761
62.8318,2614.35,125.01,0.0899987,0.0157609,0.244908,17.0097,4.16581
62.8318,2629.35,124.99,0.0900001,0.0154737,0.231052,16.7517,3.87052
62.8318,2644.35,125.72,0.0900002,0.0152573,0.220138,16.5561,3.64464
62.8318,2659.35,126.31,0.0899999,0.0150402,0.207692,16.3622,3.39831
62.8318,2674.35,126.79,0.0900009,0.014844,0.197773,16.1798,3.19993
62.8318,2689.35,127.27,0.0899997,0.0146711,0.187918,16.0208,3.01061
62.8318,2704.35,127.78,0.0900007,0.0145043,0.177996,15.8664,2.82415
62.8318,2719.35,128.32,0.0900002,0.0143484,0.16771,15.723,2.63691
62.8318,2734.35,128.82,0.0900005,0.0142,0.1572,15.5862,2.45016
62.8318,2749.35,129.49,0.0899999,0.014064,0.146979,15.4605,2.27237
62.8318,2764.35,129.71,0.0899986,0.0139254,0.135077,15.3337,2.07123
62.8318,2779.35,130.5,0.0899998,0.0138143,0.125985,15.2288,1.91861
62.8318,2794.35,131.62,0.0899996,0.013722,0.116648,15.1441,1.76652
62.8318,2809.35,132.4,0.0899993,0.0136303,0.107271,15.0585,1.61534
62.8318,2824.35,133.12,0.089998,0.0135569,0.0984544,14.9911,1.47594
62.8318,2839.35,133.44,0.0899992,0.0134887,0.0905863,14.9265,1.35213
62.8318,2854.35,134.01,0.0899999,0.0134356,0.0834954,14.8767,1.24213
62.8318,2869.35,134.58,0.0899991,0.0133931,0.0763291,14.8382,1.13259
62.8318,2884.35,136.05,0.0899993,0.0133562,0.0702022,14.8039,1.03927
62.8318,2899.35,137.23,0.0899999,0.013329,0.0642048,14.7795,0.948917
62.8318,2914.35,138.09,0.0899995,0.0133051,0.0588977,14.758,0.869212
62.8318,2929.35,138.82,0.0899993,0.013292,0.0537317,14.7477,0.792421
62.8318,2944.35,139.33,0.0900002,0.0132822,0.0497361,14.7398,0.7331
62.8318,2959.35,139.73,0.0899999,0.0132784,0.0455538,14.7386,0.671397
62.8318,2974.35,140.27,0.0899992,0.0132782,0.0419464,14.7407,0.618318
62.8318,2989.35,141.18,0.0899998,0.0132817,0.0387577,14.7464,0.571535
62.8318,3004.35,142.5,0.0899992,0.0132908,0.0362139,14.758,0.534444
62.8318,3019.35,143.81,0.0900005,0.0132998,0.0337565,14.7691,0.498552
62.8318,3034.35,144.86,0.0899996,0.0133106,0.0314776,14.7823,0.465312
62.8318,3049.35,145.7,0.0900002,0.0133263,0.0299441,14.8003,0.443182
62.8318,3064.35,146.39,0.0900001,0.013343,0.0280121,14.8198,0.415132
62.8318,3079.35,146.91,0.0900004,0.0133578,0.0265687,14.8366,0.394191
62.8318,3094.35,147.4,0.0900009,0.0133731,0.0251671,14.8542,0.373837
62.8318,3109.35,148.13,0.0900007,0.0133923,0.0241586,14.8759,0.359379
62.8318,3124.35,148.9,0.0899998,0.0134164,0.0232422,14.9031,0.346381
62.8318,3127.35,148.84,0.0900008,0.0134173,0.023038,14.904,0.343358