File: DMA/Sn_Pristine_AllData.xlsx - 200 Hz.csv
Angular frequency,Step time,Temperature,Oscillation strain,Oscillation stress,Tan(delta),Storage modulus,Loss modulus
rad/s,s,Celsius,%,MPa,,MPa,MPa
1256.64,875.729,40.05,0.0116761,0.218801,0.0123316,1873.79,23.1069
1256.64,891.966,40.27,0.0116817,0.218855,0.0123417,1873.34,23.1202
1256.64,908.241,40.63,0.0116878,0.218907,0.0123349,1872.81,23.1008
1256.64,924.516,41.06,0.0116973,0.218993,0.0123376,1872.02,23.0962
1256.64,940.791,41.54,0.0117078,0.219084,0.0123288,1871.13,23.0689
1256.64,957.066,42.07,0.0117211,0.219197,0.0123997,1869.97,23.187
1256.64,973.341,42.61,0.0117379,0.219335,0.0125879,1868.46,23.5201
1256.64,989.616,43.15,0.0117503,0.219433,0.0125226,1867.32,23.3838
1256.64,1005.89,43.83,0.0117621,0.219533,0.0124786,1866.29,23.2887
1256.64,1022.17,44.5,0.0117735,0.219635,0.0124811,1865.36,23.2817
1256.64,1038.44,45.19,0.0117864,0.219753,0.0124534,1864.32,23.217
1256.64,1054.72,45.87,0.0117962,0.219829,0.0125356,1863.42,23.359
1256.64,1070.99,46.56,0.0118084,0.219928,0.0125601,1862.32,23.3909
1256.64,1087.27,47.29,0.0118267,0.220083,0.012582,1860.75,23.4119
1256.64,1103.54,48.09,0.0118517,0.220298,0.0126651,1858.64,23.5398
1256.64,1119.82,48.95,0.0118817,0.22055,0.0127436,1856.07,23.653
1256.64,1136.09,49.58,0.0119151,0.220828,0.0128205,1853.2,23.759
1256.64,1152.37,50.11,0.0119546,0.221153,0.0129124,1849.78,23.8851
1256.64,1168.64,51.12,0.0120014,0.221555,0.0129925,1845.93,23.9832
1256.64,1184.92,51.88,0.0120534,0.221991,0.0131832,1841.57,24.2778
1256.64,1201.19,52.75,0.0120915,0.2223,0.0132335,1838.32,24.3274
1256.64,1217.47,53.53,0.012136,0.222671,0.0133191,1834.64,24.4359
1256.64,1233.74,54.31,0.012183,0.223072,0.0133236,1830.86,24.3936
1256.64,1250.02,55.2,0.0122228,0.223391,0.0135073,1827.49,24.6845
1256.64,1266.29,55.98,0.0122596,0.223706,0.0135015,1824.58,24.6345
1256.64,1282.57,56.81,0.0122888,0.223942,0.0137216,1822.15,25.0028
1256.64,1298.84,57.62,0.0123188,0.224183,0.0138709,1819.67,25.2405
1256.64,1315.12,58.41,0.0123784,0.224675,0.0141275,1814.88,25.6398
1256.64,1331.39,59.13,0.0124312,0.225112,0.0140054,1810.68,25.3594
1256.64,1347.67,59.97,0.01251,0.225762,0.0141987,1804.47,25.6211
1256.64,1363.94,60.86,0.0125751,0.22629,0.0143023,1799.32,25.7345
1256.64,1380.22,61.66,0.0126537,0.226938,0.0144804,1793.26,25.9671
1256.64,1396.49,62.09,0.0127123,0.227397,0.0149065,1788.6,26.6617
1256.64,1412.77,63.15,0.0127816,0.227954,0.0154447,1783.24,27.5416
1256.64,1429.04,63.97,0.0128311,0.22833,0.0160883,1779.28,28.6255
1256.64,1445.32,65.11,0.0129079,0.228948,0.016334,1773.47,28.9678
1256.64,1461.59,66.2,0.0130137,0.229801,0.0167025,1765.6,29.4899
1256.64,1477.87,66.7,0.013097,0.230454,0.0170127,1759.34,29.9312
1256.64,1494.14,66.98,0.0131847,0.231138,0.0178076,1752.8,31.2131
1256.64,1510.42,68.72,0.0132545,0.231657,0.01908,1747.45,33.3412
1256.64,1526.69,68.22,0.0133153,0.232103,0.0199727,1742.78,34.808
1256.64,1542.97,69.69,0.0133932,0.232727,0.020013,1737.3,34.7685
1256.64,1559.24,70.49,0.0135005,0.23356,0.0204996,1729.65,35.4571
1256.64,1575.52,72,0.013591,0.234265,0.0209005,1723.3,36.018
1256.64,1591.79,72.55,0.0136685,0.234872,0.0213438,1717.96,36.6677
1256.64,1608.07,73.13,0.0137223,0.235281,0.0213035,1714.19,36.5184
1256.64,1624.34,73.55,0.0138274,0.236095,0.0216804,1707.04,37.0093
1256.64,1640.62,74.63,0.0139497,0.237046,0.0215691,1698.89,36.6436
1256.64,1656.89,75,0.0140614,0.237938,0.0212991,1691.76,36.0329
1256.64,1673.17,76.3,0.0141663,0.238719,0.0216217,1684.73,36.4267
1256.64,1689.44,76.8,0.0143384,0.240058,0.0216586,1673.84,36.253
1256.64,1705.72,77.94,0.0144888,0.241183,0.0222174,1664.2,36.9743
1256.64,1721.99,78.75,0.0146117,0.242121,0.0218767,1656.64,36.2418
1256.64,1738.27,79.54,0.0148281,0.243753,0.0220208,1643.46,36.1903
1256.64,1754.54,80.69,0.0149962,0.245,0.0226877,1633.32,37.0564
1256.64,1770.82,81.1,0.0152339,0.246727,0.0236639,1619.14,38.3151
1256.64,1787.09,82.55,0.0154745,0.248496,0.0241341,1605.37,38.7442
1256.64,1803.37,82.83,0.0157292,0.25033,0.024832,1591.01,39.5078
1256.64,1819.64,84.05,0.0160304,0.252466,0.0260159,1574.38,40.959
1256.64,1835.92,85.03,0.0163432,0.254662,0.0271844,1557.64,42.3435
1256.64,1852.19,85.45,0.0167279,0.257337,0.0284867,1537.74,43.8053
1256.64,1868.47,86.24,0.0171256,0.260029,0.0305256,1517.65,46.3274
1256.64,1884.74,87.35,0.0175797,0.263079,0.0325128,1495.71,48.6296
1256.64,1901.02,88.11,0.0181021,0.266503,0.0351588,1471.31,51.7295
1256.64,1917.29,89.55,0.018661,0.270091,0.0382347,1446.3,55.2988
1256.64,1933.57,91.8,0.0192064,0.273539,0.0412071,1423,58.6376
1256.64,1949.84,91.12,0.0196599,0.27634,0.0436155,1404.27,61.2479
1256.64,1966.12,92.95,0.0203151,0.280292,0.0476428,1378.15,65.6591
1256.64,1982.39,92.95,0.0208972,0.283739,0.0512835,1356,69.5406
1256.64,1998.67,94.25,0.0215601,0.287553,0.0558802,1331.65,74.413
1256.64,2014.94,94.74,0.0223223,0.291842,0.061024,1304.97,79.6345
1256.64,2031.22,93.5,0.0229907,0.295507,0.0655552,1282.58,84.0798
1256.64,2047.49,94.86,0.0237264,0.299417,0.0712568,1258.77,89.6956
1256.64,2063.77,95.07,0.0248162,0.305015,0.079929,1225.19,97.928
1256.64,2080.04,95.22,0.0260858,0.311245,0.0903653,1188.32,107.383
1256.64,2096.32,96.46,0.0275996,0.318348,0.103211,1147.36,118.42
1256.64,2112.59,96.8,0.0295109,0.326815,0.119271,1099.65,131.156
1256.64,2128.87,98.09,0.0316912,0.33589,0.137335,1050.03,144.206
1256.64,2145.14,99.01,0.0342944,0.345966,0.158862,996.32,158.277
1256.64,2161.42,99.71,0.0374058,0.357052,0.183845,938.803,172.594
1256.64,2177.69,101.02,0.041108,0.36906,0.212759,878.127,186.83
1256.64,2193.97,102.12,0.0456482,0.382358,0.246116,813.348,200.178
1256.64,2210.24,102.85,0.051325,0.397199,0.284337,744.383,211.655
1256.64,2226.52,103.73,0.0587169,0.414162,0.328388,670.145,220.067
1256.64,2242.79,104.75,0.068581,0.433538,0.380053,590.917,224.58
1256.64,2259.07,105.83,0.0822535,0.455672,0.442777,506.551,224.289
1256.64,2275.34,106.88,0.087745,0.419025,0.513078,424.887,218
1256.64,2291.62,107.57,0.0877411,0.360544,0.582765,355.031,206.899
1256.64,2307.89,108.39,0.0877389,0.3118,0.647141,298.349,193.074
1256.64,2324.17,109.26,0.0877345,0.271039,0.705693,252.409,178.123
1256.64,2340.59,110.04,0.0877308,0.236404,0.759449,214.595,162.974
1256.64,2356.87,110.81,0.0877275,0.207139,0.807797,183.676,148.373
1256.64,2373.14,113.31,0.087723,0.183803,0.84706,159.878,135.426
1256.64,2389.42,112.57,0.0877274,0.163817,0.882045,140.041,123.523
1256.64,2405.69,114.8,0.0877201,0.143886,0.915295,120.997,110.748
1256.64,2421.97,114.67,0.0877142,0.135304,0.92645,113.157,104.834
1256.64,2438.24,116.54,0.0877247,0.122627,0.945325,101.582,96.028
1256.64,2454.52,116.86,0.0877077,0.11327,0.954237,93.4324,89.1566
1256.64,2470.79,117.33,0.0877107,0.107603,0.960823,88.4631,84.9975
1256.64,2487.07,116.96,0.0877127,0.101746,0.964993,83.472,80.5499
1256.64,2503.34,118.61,0.0877106,0.0942464,0.965528,77.3004,74.6357
1256.64,2519.62,119.18,0.0877083,0.0859251,0.962669,70.5779,67.9431
1256.64,2535.89,120.09,0.08771,0.0784847,0.954783,64.7196,61.7932
1256.64,2552.17,120.75,0.0877107,0.0716902,0.941364,59.5138,56.0241
1256.64,2568.44,121.4,0.0877114,0.0654647,0.922558,54.8573,50.609
1256.64,2584.72,122.09,0.0877147,0.0597783,0.899585,50.6666,45.5789
1256.64,2600.99,122.85,0.0877162,0.0546179,0.869066,46.9984,40.8447
1256.64,2617.27,123.68,0.0877122,0.0499471,0.836634,43.6749,36.5399
1256.64,2633.54,124.29,0.0877096,0.0459551,0.799277,40.9278,32.7126
1256.64,2649.82,124.55,0.0877067,0.0425045,0.761758,38.551,29.3665
1256.64,2666.09,124.88,0.0877064,0.0394405,0.724542,36.4151,26.3843
1256.64,2682.37,125.68,0.0877077,0.0367869,0.684299,34.6141,23.6864
1256.64,2698.64,127.11,0.0877074,0.0344253,0.645168,32.9817,21.2787
1256.64,2714.92,128.55,0.0877062,0.0323932,0.60805,31.5578,19.1887
1256.64,2731.19,129.66,0.087705,0.0306321,0.571164,30.3279,17.3222
1256.64,2747.47,130.37,0.0877039,0.0291338,0.534522,29.2958,15.6592
1256.64,2763.74,131.03,0.0877068,0.0277155,0.498588,28.28,14.1001
1256.64,2780.02,131.59,0.0877073,0.0264669,0.461326,27.4012,12.6409
1256.64,2796.29,131.57,0.0877041,0.0254197,0.432764,26.5994,11.5113
1256.64,2812.57,132.52,0.0877063,0.0244381,0.403426,25.8401,10.4245
1256.64,2828.84,134.28,0.0877029,0.02366,0.376087,25.2507,9.49648
1256.64,2845.12,135.54,0.0877061,0.0229992,0.350403,24.7477,8.67165
1256.64,2861.39,136.21,0.0877044,0.0224441,0.325673,24.3328,7.92453
1256.64,2877.67,136.84,0.0877045,0.0218401,0.302149,23.8375,7.2025
1256.64,2893.94,136.75,0.0877053,0.0214214,0.279934,23.5201,6.58408
1256.64,2910.22,137.41,0.0877049,0.0209966,0.260617,23.1663,6.03753
1256.64,2926.49,139.26,0.087705,0.0206164,0.241932,22.8474,5.52751
1256.64,2942.77,140.58,0.0877044,0.0203022,0.226206,22.578,5.10727
1256.64,2959.04,141.29,0.0877039,0.0200636,0.211954,22.3794,4.74341
1256.64,2975.32,141.9,0.087704,0.0197696,0.19547,22.1226,4.32431
1256.64,2991.59,142.05,0.0877047,0.0195958,0.180198,21.9888,3.96233
1256.64,3007.87,142.29,0.0877044,0.019409,0.168675,21.8218,3.68077
1256.64,3024.14,143.57,0.0877047,0.0191797,0.158365,21.5994,3.42059
1256.64,3040.42,145.25,0.0877037,0.0190561,0.147236,21.4961,3.165
1256.64,3056.69,146.43,0.0877042,0.0189276,0.139235,21.375,2.97615
1256.64,3072.97,147.22,0.0877035,0.0188096,0.12962,21.2689,2.75688
1256.64,3089.24,147.71,0.0877037,0.0187396,0.120587,21.2133,2.55805
1256.64,3105.52,148.09,0.087704,0.0187337,0.113539,21.2237,2.40972
1256.64,3121.79,148.97,0.0877038,0.0186575,0.107611,21.1512,2.27611
1256.64,3124.12,149.05,0.0877049,0.0186709,0.107529,21.1663,2.27598